# Created by:        SpecsLab Prodigy, Version 4.60.2-r85849 
#
# XY-Serializer Export Settings:
#   Comment Prefix:           #
#   Output meta data:         yes
#   Energy Axis:              Binding Energy
#   Count Rate:               Counts per Second
#   Separate Scan Data:       no
#   Separate Channel Data:    no
#   External Channel Data:    yes
#   Transmission Function:    no
#   ErrorBar:                 no
#   Operation Results:        yes
#   Time Zone Format:         UTC
#
# Group:             Spectrum Group
#
# Region:            C1s
# Acquisition Date:  09/01/22 11:14:06 UTC
# Analysis Method:   XPS
# Analyzer:          Phoibos 100 R6
# Analyzer Lens:     LargeArea:1.5kV
# Analyzer Slit:     1:0.2x20\B:open
# Scan Mode:         FixedAnalyzerTransmission
# Curves/Scan:       1
# Values/Curve:      151
# Dwell Time:        0.8
# Excitation Energy: 1486.61
# Binding Energy:    295
# Pass Energy:       30
# Bias Voltage:      90
# Detector Voltage:  2600
# Eff. Workfunction: 4.309
# Source:            X-Ray Dummy
# Comment:           
#
# Cycle: 0
# Number of Scans: 2
#
# Cycle: 0, Curve: 0
# Acquisition Date: 09/01/22 11:14:06 UTC
#
# ColumnLabels: energy counts/s
#
295  580.625
294.9  568.125
294.8  577.5
294.7  588.75
294.6  589.375
294.5  599.375
294.4  545
294.3  583.125
294.2  575
294.1  600.625
294  620
293.9  567.5
293.8  568.125
293.7  600.625
293.6  580
293.5  585
293.4  578.125
293.3  542.5
293.2  570
293.1  556.875
293  568.75
292.9  578.75
292.8  579.375
292.7  594.375
292.6  612.5
292.5  584.375
292.4  570.625
292.3  574.375
292.2  555.625
292.1  568.75
292  563.75
291.9  544.375
291.8  573.125
291.7  544.375
291.6  538.125
291.5  617.5
291.4  565
291.3  553.75
291.2  565
291.1  546.25
291  569.375
290.9  578.125
290.8  566.25
290.7  597.5
290.6  560
290.5  565
290.4  547.5
290.3  584.375
290.2  591.25
290.1  612.5
290  600.625
289.9  576.25
289.8  575.625
289.7  572.5
289.6  608.75
289.5  572.5
289.4  575
289.3  594.375
289.2  618.125
289.1  563.125
289  596.25
288.9  573.75
288.8  583.125
288.7  566.25
288.6  596.875
288.5  618.75
288.4  606.25
288.3  595.625
288.2  603.75
288.1  625
288  612.5
287.9  625
287.8  657.5
287.7  606.25
287.6  636.875
287.5  618.125
287.4  598.75
287.3  624.375
287.2  613.75
287.1  606.875
287  617.5
286.9  630
286.8  608.75
286.7  579.375
286.6  629.375
286.5  628.125
286.4  598.125
286.3  601.25
286.2  608.125
286.1  582.5
286  612.5
285.9  594.375
285.8  605.625
285.7  567.5
285.6  618.75
285.5  600
285.4  598.125
285.3  603.125
285.2  595.625
285.1  577.5
285  597.5
284.9  601.875
284.8  575
284.7  583.125
284.6  604.375
284.5  616.875
284.4  555.625
284.3  549.375
284.2  595.625
284.1  592.5
284  621.25
283.9  555
283.8  583.75
283.7  601.25
283.6  570
283.5  571.875
283.4  598.75
283.3  565.625
283.2  581.875
283.1  567.5
283  591.25
282.9  589.375
282.8  596.875
282.7  603.75
282.6  588.125
282.5  561.875
282.4  608.125
282.3  571.25
282.2  564.375
282.1  585
282  585
281.9  580
281.8  592.5
281.7  603.125
281.6  573.125
281.5  594.375
281.4  578.75
281.3  587.5
281.2  561.875
281.1  583.125
281  574.375
280.9  518.75
280.8  574.375
280.7  585
280.6  581.875
280.5  579.375
280.4  568.125
280.3  548.125
280.2  558.125
280.1  581.25
280  570

# Region:            overview
# Acquisition Date:  09/01/22 11:04:38 UTC
# Analysis Method:   XPS
# Analyzer:          Phoibos 100 R6
# Analyzer Lens:     MediumArea:1.5kV
# Analyzer Slit:     1:0.2x20\B:open
# Scan Mode:         FixedAnalyzerTransmission
# Curves/Scan:       1
# Values/Curve:      1205
# Dwell Time:        0.2
# Excitation Energy: 1486.61
# Binding Energy:    1200
# Pass Energy:       50
# Bias Voltage:      90
# Detector Voltage:  2600
# Eff. Workfunction: 4.309
# Source:            X-Ray Dummy
# Comment:           
#
# Cycle: 0
# Number of Scans: 1
#
# Cycle: 0, Curve: 0
# Acquisition Date: 09/01/22 11:04:38 UTC
#
# ColumnLabels: energy counts/s
#
1200  3175
1199  3045
1198  2835
1197  2775
1196  2910
1195  2830
1194  2995
1193  2895
1192  3030
1191  2900
1190  2970
1189  2850
1188  2700
1187  2700
1186  2855
1185  3020
1184  2740
1183  2740
1182  2665
1181  2665
1180  2945
1179  2720
1178  2560
1177  2670
1176  2970
1175  2710
1174  2640
1173  2705
1172  2650
1171  2775
1170  2585
1169  2725
1168  2815
1167  2620
1166  2780
1165  2765
1164  2845
1163  2840
1162  2715
1161  2790
1160  2805
1159  2485
1158  2525
1157  2620
1156  2605
1155  2590
1154  2735
1153  2535
1152  2660
1151  2570
1150  2555
1149  2555
1148  2505
1147  2445
1146  2605
1145  2410
1144  2445
1143  2745
1142  2390
1141  2400
1140  2700
1139  2680
1138  2475
1137  2440
1136  2385
1135  2600
1134  2275
1133  2245
1132  2495
1131  2605
1130  2375
1129  2325
1128  2480
1127  2525
1126  2280
1125  2255
1124  2380
1123  2460
1122  2200
1121  2330
1120  2470
1119  2430
1118  2290
1117  2630
1116  2415
1115  2455
1114  2370
1113  2200
1112  2535
1111  2545
1110  2370
1109  2345
1108  2420
1107  2355
1106  2460
1105  2320
1104  2280
1103  2305
1102  2405
1101  2230
1100  2460
1099  2355
1098  2375
1097  2195
1096  2360
1095  2265
1094  2345
1093  2310
1092  2340
1091  2400
1090  2415
1089  2350
1088  2100
1087  2145
1086  2260
1085  2290
1084  2200
1083  2165
1082  2100
1081  2380
1080  2280
1079  2330
1078  2445
1077  2215
1076  2350
1075  2305
1074  2165
1073  2440
1072  2365
1071  2325
1070  2290
1069  2455
1068  2350
1067  2255
1066  2275
1065  2305
1064  2250
1063  2070
1062  2350
1061  2340
1060  2365
1059  2205
1058  2280
1057  2150
1056  2090
1055  2110
1054  2405
1053  2160
1052  2195
1051  2405
1050  2460
1049  2185
1048  2150
1047  2175
1046  2095
1045  2310
1044  2330
1043  2185
1042  2345
1041  2535
1040  2205
1039  2350
1038  2295
1037  2255
1036  2235
1035  2320
1034  2330
1033  2390
1032  2375
1031  2175
1030  2470
1029  2365
1028  2110
1027  2330
1026  2300
1025  2485
1024  2125
1023  2330
1022  2145
1021  2175
1020  2505
1019  2355
1018  2220
1017  2305
1016  2095
1015  2300
1014  2405
1013  2290
1012  2415
1011  2290
1010  2270
1009  2385
1008  2360
1007  2500
1006  2410
1005  2725
1004  2725
1003  2595
1002  2295
1001  2350
1000  2265
999  2315
998  2155
997  2280
996  2120
995  2105
994  2190
993  2135
992  2245
991  2070
990  2205
989  2205
988  2230
987  2565
986  2630
985  2745
984  2995
983  3090
982  2875
981  2705
980  2345
979  2340
978  2180
977  1965
976  1995
975  2025
974  1815
973  1545
972  1580
971  1515
970  1405
969  1535
968  1515
967  1250
966  1375
965  1490
964  1335
963  1520
962  1405
961  1335
960  1505
959  1350
958  1405
957  1495
956  1450
955  1360
954  1390
953  1455
952  1510
951  1560
950  1380
949  1555
948  1415
947  1320
946  1340
945  1360
944  1455
943  1325
942  1460
941  1330
940  1445
939  1385
938  1540
937  1545
936  1360
935  1335
934  1425
933  1400
932  1430
931  1350
930  1405
929  1350
928  1255
927  1315
926  1400
925  1395
924  1370
923  1360
922  1285
921  1360
920  1385
919  1330
918  1405
917  1260
916  1410
915  1455
914  1325
913  1610
912  1455
911  1430
910  1450
909  1405
908  1330
907  1260
906  1495
905  1315
904  1240
903  1210
902  1425
901  1285
900  1350
899  1260
898  1375
897  1260
896  1385
895  1315
894  1260
893  1420
892  1200
891  1210
890  1260
889  1190
888  1345
887  1330
886  1420
885  1135
884  1220
883  1360
882  1225
881  1275
880  1355
879  1390
878  1305
877  1350
876  1315
875  1330
874  1330
873  1275
872  1330
871  1265
870  1325
869  1410
868  1155
867  1325
866  1335
865  1280
864  1410
863  1240
862  1210
861  1145
860  1360
859  1445
858  1290
857  1325
856  1425
855  1345
854  1425
853  1415
852  1250
851  1295
850  1270
849  1330
848  1455
847  1245
846  1275
845  1320
844  1295
843  1300
842  1270
841  1360
840  1220
839  1245
838  1275
837  1320
836  1410
835  1280
834  1370
833  1375
832  1225
831  1350
830  1325
829  1500
828  1355
827  1275
826  1140
825  1190
824  1285
823  1290
822  1405
821  1210
820  1280
819  1395
818  1400
817  1205
816  1450
815  1225
814  1280
813  1310
812  1210
811  1270
810  1355
809  1295
808  1225
807  1110
806  1365
805  1320
804  1260
803  1390
802  1230
801  1265
800  1420
799  1410
798  1255
797  1360
796  1305
795  1205
794  1400
793  1425
792  1245
791  1250
790  1290
789  1285
788  1335
787  1365
786  1430
785  1310
784  1340
783  1200
782  1370
781  1250
780  1400
779  1325
778  1350
777  1215
776  1315
775  1315
774  1185
773  1335
772  1325
771  1410
770  1425
769  1310
768  1435
767  1240
766  1225
765  1250
764  1185
763  1255
762  1330
761  1285
760  1405
759  1240
758  1235
757  1335
756  1365
755  1275
754  1125
753  1430
752  1345
751  1335
750  1270
749  1305
748  1115
747  1295
746  1340
745  1245
744  1380
743  1410
742  1250
741  1240
740  1475
739  1200
738  1250
737  1350
736  1445
735  1395
734  1325
733  1255
732  1275
731  1395
730  1305
729  1255
728  1255
727  1335
726  1595
725  1345
724  1300
723  1290
722  1470
721  1335
720  1315
719  1325
718  1220
717  1410
716  1360
715  1350
714  1350
713  1465
712  1420
711  1405
710  1275
709  1350
708  1410
707  1265
706  1355
705  1305
704  1355
703  1395
702  1510
701  1205
700  1380
699  1435
698  1440
697  1290
696  1405
695  1580
694  1375
693  1530
692  1350
691  1390
690  1275
689  1325
688  1430
687  1440
686  1300
685  1425
684  1285
683  1340
682  1410
681  1370
680  1330
679  1445
678  1290
677  1415
676  1320
675  1425
674  1340
673  1395
672  1355
671  1310
670  1480
669  1380
668  1460
667  1360
666  1420
665  1495
664  1395
663  1330
662  1510
661  1380
660  1505
659  1320
658  1290
657  1410
656  1590
655  1375
654  1420
653  1380
652  1400
651  1460
650  1525
649  1385
648  1360
647  1510
646  1425
645  1380
644  1480
643  1355
642  1390
641  1505
640  1455
639  1430
638  1420
637  1460
636  1315
635  1555
634  1475
633  1610
632  1450
631  1360
630  1410
629  1410
628  1640
627  1620
626  1555
625  1500
624  1720
623  1325
622  1470
621  1445
620  1560
619  1385
618  1605
617  1425
616  1385
615  1445
614  1485
613  1565
612  1555
611  1480
610  1695
609  1455
608  1580
607  1565
606  1615
605  1635
604  1650
603  1550
602  1785
601  1460
600  1490
599  1625
598  1530
597  1555
596  1595
595  1660
594  1640
593  1695
592  1565
591  1660
590  1580
589  1525
588  1615
587  1675
586  1610
585  1795
584  1695
583  1660
582  1560
581  1620
580  1700
579  1695
578  1655
577  1530
576  1665
575  1545
574  1630
573  1565
572  1645
571  1630
570  1725
569  1810
568  1605
567  1565
566  1655
565  1815
564  1730
563  1705
562  1870
561  1955
560  1900
559  2030
558  1930
557  1740
556  1810
555  1790
554  1510
553  1545
552  1470
551  1445
550  1450
549  1430
548  1400
547  1195
546  1130
545  1240
544  1075
543  955
542  1015
541  1090
540  1050
539  1365
538  2065
537  5080
536  8035
535  6045
534  2580
533  1185
532  1010
531  1005
530  840
529  920
528  865
527  1045
526  1390
525  1185
524  1160
523  865
522  890
521  730
520  790
519  780
518  775
517  765
516  760
515  740
514  670
513  720
512  845
511  865
510  795
509  720
508  685
507  725
506  625
505  780
504  760
503  690
502  780
501  730
500  700
499  735
498  720
497  740
496  660
495  685
494  700
493  585
492  730
491  875
490  600
489  730
488  845
487  685
486  620
485  765
484  735
483  685
482  810
481  720
480  720
479  675
478  705
477  840
476  740
475  855
474  685
473  705
472  765
471  755
470  800
469  715
468  730
467  860
466  765
465  820
464  815
463  860
462  705
461  725
460  750
459  675
458  680
457  670
456  660
455  690
454  775
453  850
452  670
451  820
450  760
449  675
448  755
447  775
446  695
445  725
444  680
443  710
442  670
441  710
440  800
439  805
438  765
437  810
436  795
435  705
434  685
433  715
432  755
431  735
430  775
429  600
428  730
427  610
426  650
425  700
424  665
423  675
422  750
421  625
420  640
419  720
418  800
417  780
416  750
415  800
414  830
413  670
412  685
411  795
410  675
409  755
408  760
407  745
406  735
405  685
404  790
403  825
402  670
401  755
400  725
399  675
398  780
397  760
396  810
395  735
394  770
393  670
392  725
391  775
390  740
389  715
388  705
387  845
386  765
385  650
384  720
383  815
382  735
381  650
380  650
379  725
378  720
377  625
376  880
375  725
374  805
373  685
372  715
371  815
370  805
369  655
368  735
367  705
366  665
365  770
364  685
363  770
362  725
361  725
360  620
359  730
358  745
357  730
356  650
355  805
354  755
353  700
352  730
351  800
350  750
349  700
348  880
347  720
346  795
345  790
344  715
343  690
342  720
341  700
340  740
339  650
338  810
337  685
336  805
335  780
334  710
333  705
332  770
331  745
330  695
329  655
328  735
327  670
326  715
325  745
324  715
323  740
322  790
321  755
320  805
319  715
318  595
317  715
316  735
315  720
314  710
313  770
312  670
311  650
310  760
309  700
308  650
307  690
306  875
305  755
304  705
303  665
302  700
301  735
300  630
299  750
298  840
297  785
296  700
295  685
294  690
293  755
292  660
291  785
290  655
289  715
288  690
287  750
286  790
285  905
284  780
283  730
282  675
281  705
280  700
279  700
278  660
277  820
276  700
275  845
274  815
273  720
272  690
271  775
270  685
269  790
268  805
267  670
266  805
265  740
264  800
263  770
262  745
261  835
260  815
259  775
258  805
257  700
256  845
255  705
254  690
253  730
252  675
251  815
250  705
249  870
248  775
247  845
246  795
245  885
244  690
243  775
242  855
241  735
240  710
239  845
238  890
237  715
236  855
235  665
234  695
233  810
232  825
231  780
230  820
229  730
228  865
227  755
226  745
225  810
224  680
223  740
222  700
221  710
220  690
219  740
218  825
217  735
216  710
215  875
214  825
213  850
212  870
211  685
210  950
209  665
208  695
207  725
206  585
205  725
204  760
203  765
202  795
201  785
200  735
199  755
198  745
197  705
196  670
195  670
194  705
193  770
192  740
191  765
190  760
189  630
188  745
187  815
186  900
185  900
184  665
183  790
182  840
181  855
180  920
179  740
178  815
177  740
176  915
175  710
174  750
173  590
172  775
171  730
170  640
169  705
168  680
167  640
166  765
165  710
164  705
163  700
162  765
161  790
160  900
159  1380
158  2015
157  1795
156  1175
155  690
154  690
153  730
152  575
151  540
150  670
149  580
148  755
147  750
146  680
145  645
144  610
143  670
142  500
141  655
140  575
139  565
138  615
137  630
136  660
135  560
134  535
133  620
132  600
131  600
130  645
129  665
128  600
127  650
126  710
125  645
124  600
123  555
122  565
121  500
120  580
119  550
118  610
117  485
116  455
115  505
114  405
113  540
112  405
111  460
110  485
109  745
108  1170
107  1940
106  1735
105  935
104  570
103  520
102  445
101  425
100  475
99  480
98  490
97  525
96  540
95  475
94  505
93  480
92  435
91  425
90  475
89  515
88  490
87  535
86  550
85  420
84  405
83  420
82  370
81  400
80  475
79  390
78  410
77  360
76  480
75  400
74  475
73  395
72  460
71  415
70  405
69  460
68  430
67  405
66  420
65  460
64  360
63  340
62  445
61  390
60  460
59  475
58  505
57  410
56  450
55  440
54  490
53  380
52  445
51  420
50  410
49  455
48  410
47  345
46  425
45  455
44  400
43  430
42  365
41  395
40  445
39  475
38  450
37  490
36  405
35  375
34  490
33  385
32  440
31  555
30  600
29  505
28  655
27  555
26  430
25  405
24  455
23  410
22  365
21  395
20  385
19  370
18  385
17  415
16  370
15  345
14  445
13  470
12  345
11  380
10  345
9  425
8  385
7  330
6  340
5  395
4  355
3  355
2  310
1  340
-2.2737368e-013  350
-1  365
-2  320
-3  285
-4  345

# Region:            O1s
# Acquisition Date:  09/01/22 11:09:02 UTC
# Analysis Method:   XPS
# Analyzer:          Phoibos 100 R6
# Analyzer Lens:     LargeArea:1.5kV
# Analyzer Slit:     1:0.2x20\B:open
# Scan Mode:         FixedAnalyzerTransmission
# Curves/Scan:       1
# Values/Curve:      141
# Dwell Time:        0.8
# Excitation Energy: 1486.61
# Binding Energy:    541
# Pass Energy:       30
# Bias Voltage:      90
# Detector Voltage:  2600
# Eff. Workfunction: 4.309
# Source:            X-Ray Dummy
# Comment:           
#
# Cycle: 0
# Number of Scans: 1
#
# Cycle: 0, Curve: 0
# Acquisition Date: 09/01/22 11:09:02 UTC
#
# ColumnLabels: energy counts/s
#
541  956.25
540.9  951.25
540.8  912.5
540.7  981.25
540.6  1006.25
540.5  942.5
540.4  930
540.3  936.25
540.2  1026.25
540.1  1001.25
540  1021.25
539.9  986.25
539.8  1017.5
539.7  987.5
539.6  1022.5
539.5  1101.25
539.4  1135
539.3  1111.25
539.2  1138.75
539.1  1185
539  1158.75
538.9  1228.75
538.8  1208.75
538.7  1305
538.6  1326.25
538.5  1353.75
538.4  1466.25
538.3  1508.75
538.2  1712.5
538.1  1825
538  1908.75
537.9  2197.5
537.8  2232.5
537.7  2536.25
537.6  2778.75
537.5  3016.25
537.4  3418.75
537.3  3801.25
537.2  3963.75
537.1  4636.25
537  5040
536.9  5498.75
536.8  5890
536.7  6527.5
536.6  6738.75
536.5  7251.25
536.4  7650
536.3  7650
536.2  7992.5
536.1  8032.5
536  8027.5
535.9  7982.5
535.8  7890
535.7  7240
535.6  7160
535.5  6791.25
535.4  6351.25
535.3  5803.75
535.2  5438.75
535.1  4982.5
535  4441.25
534.9  4001.25
534.8  3595
534.7  3171.25
534.6  2933.75
534.5  2523.75
534.4  2285
534.3  2071.25
534.2  1836.25
534.1  1670
534  1610
533.9  1517.5
533.8  1462.5
533.7  1380
533.6  1188.75
533.5  1138.75
533.4  1176.25
533.3  1158.75
533.2  1070
533.1  1013.75
533  1096.25
532.9  1101.25
532.8  1041.25
532.7  955
532.6  952.5
532.5  1047.5
532.4  893.75
532.3  955
532.2  950
532.1  961.25
532  955
531.9  996.25
531.8  937.5
531.7  877.5
531.6  896.25
531.5  943.75
531.4  877.5
531.3  905
531.2  840
531.1  966.25
531  930
530.9  867.5
530.8  878.75
530.7  856.25
530.6  952.5
530.5  837.5
530.4  885
530.3  837.5
530.2  920
530.1  846.25
530  856.25
529.9  837.5
529.8  815
529.7  857.5
529.6  868.75
529.5  826.25
529.4  888.75
529.3  837.5
529.2  798.75
529.1  868.75
529  797.5
528.9  802.5
528.8  821.25
528.7  865
528.6  776.25
528.5  857.5
528.4  831.25
528.3  877.5
528.2  813.75
528.1  855
528  843.75
527.9  911.25
527.8  947.5
527.7  983.75
527.6  938.75
527.5  958.75
527.4  965
527.3  1013.75
527.2  1102.5
527.1  1106.25
527  1091.25

# Region:            Si2p
# Acquisition Date:  09/01/22 11:12:03 UTC
# Analysis Method:   XPS
# Analyzer:          Phoibos 100 R6
# Analyzer Lens:     LargeArea:1.5kV
# Analyzer Slit:     1:0.2x20\B:open
# Scan Mode:         FixedAnalyzerTransmission
# Curves/Scan:       1
# Values/Curve:      111
# Dwell Time:        0.8
# Excitation Energy: 1486.61
# Binding Energy:    112
# Pass Energy:       30
# Bias Voltage:      90
# Detector Voltage:  2600
# Eff. Workfunction: 4.309
# Source:            X-Ray Dummy
# Comment:           
#
# Cycle: 0
# Number of Scans: 2
#
# Cycle: 0, Curve: 0
# Acquisition Date: 09/01/22 11:12:03 UTC
#
# ColumnLabels: energy counts/s
#
112  338.75
111.9  345.625
111.8  337.5
111.7  331.875
111.6  367.5
111.5  349.375
111.4  323.75
111.3  349.375
111.2  356.25
111.1  366.875
111  383.75
110.9  334.375
110.8  373.75
110.7  331.875
110.6  370.625
110.5  366.25
110.4  346.25
110.3  368.125
110.2  391.25
110.1  357.5
110  347.5
109.9  367.5
109.8  359.375
109.7  372.5
109.6  410.625
109.5  393.75
109.4  415
109.3  393.75
109.2  421.25
109.1  428.125
109  460
108.9  461.25
108.8  507.5
108.7  515
108.6  520
108.5  560.625
108.4  638.125
108.3  710.625
108.2  776.25
108.1  788.125
108  842.5
107.9  965
107.8  925
107.7  1011.25
107.6  1048.75
107.5  1145.625
107.4  1211.25
107.3  1278.125
107.2  1365
107.1  1406.875
107  1376.25
106.9  1396.25
106.8  1391.875
106.7  1350
106.6  1385
106.5  1343.75
106.4  1291.875
106.3  1228.125
106.2  1158.125
106.1  1140
106  1036.875
105.9  995
105.8  946.875
105.7  848.125
105.6  799.375
105.5  770
105.4  687.5
105.3  675.625
105.2  588.75
105.1  542.5
105  512.5
104.9  467.5
104.8  478.125
104.7  473.125
104.6  426.875
104.5  433.75
104.4  408.75
104.3  400.625
104.2  359.375
104.1  371.875
104  382.5
103.9  380
103.8  352.5
103.7  335
103.6  336.875
103.5  351.25
103.4  356.25
103.3  359.375
103.2  328.75
103.1  347.5
103  358.75
102.9  322.5
102.8  328.125
102.7  335.625
102.6  307.5
102.5  343.75
102.4  313.75
102.3  336.25
102.2  338.125
102.1  325
102  322.5
101.9  329.375
101.8  320.625
101.7  341.25
101.6  325
101.5  349.375
101.4  326.25
101.3  303.75
101.2  300
101.1  300
101  309.375

