# Created by:        SpecsLab Prodigy, Version 4.60.2-r85849 
#
# XY-Serializer Export Settings:
#   Comment Prefix:           #
#   Output meta data:         yes
#   Energy Axis:              Binding Energy
#   Count Rate:               Counts per Second
#   Separate Scan Data:       no
#   Separate Channel Data:    no
#   External Channel Data:    yes
#   Transmission Function:    no
#   ErrorBar:                 no
#   Operation Results:        yes
#   Time Zone Format:         UTC
#
# Group:             Spectrum Group
#
# Region:            overview
# Acquisition Date:  09/01/22 15:42:45 UTC
# Analysis Method:   XPS
# Analyzer:          Phoibos 100 R6
# Analyzer Lens:     MediumArea:1.5kV
# Analyzer Slit:     1:0.2x20\B:open
# Scan Mode:         FixedAnalyzerTransmission
# Curves/Scan:       1
# Values/Curve:      1205
# Dwell Time:        0.2
# Excitation Energy: 1486.61
# Binding Energy:    1200
# Pass Energy:       50
# Bias Voltage:      90
# Detector Voltage:  2600
# Eff. Workfunction: 4.309
# Source:            X-Ray Dummy
# Comment:           
#
# Cycle: 0
# Number of Scans: 1
#
# Cycle: 0, Curve: 0
# Acquisition Date: 09/01/22 15:42:45 UTC
#
# ColumnLabels: energy counts/s
#
1200  2855
1199  2810
1198  2875
1197  2800
1196  2805
1195  2875
1194  3130
1193  2905
1192  2730
1191  2840
1190  2805
1189  2935
1188  2870
1187  2625
1186  2480
1185  2640
1184  2505
1183  2805
1182  2630
1181  2625
1180  2780
1179  2460
1178  2770
1177  2820
1176  2680
1175  2545
1174  2810
1173  2410
1172  2785
1171  2765
1170  2725
1169  2435
1168  2530
1167  2655
1166  2540
1165  2595
1164  2420
1163  2650
1162  2520
1161  2630
1160  2550
1159  2405
1158  2380
1157  2555
1156  2320
1155  2260
1154  2390
1153  2455
1152  2370
1151  2550
1150  2315
1149  2365
1148  2475
1147  2400
1146  2485
1145  2445
1144  2345
1143  2295
1142  2350
1141  2405
1140  2235
1139  2510
1138  2305
1137  2455
1136  2170
1135  2435
1134  2285
1133  2380
1132  2340
1131  2485
1130  2355
1129  2330
1128  2520
1127  2090
1126  2280
1125  2355
1124  2535
1123  2480
1122  2425
1121  2295
1120  2310
1119  2360
1118  2405
1117  2285
1116  2290
1115  2300
1114  2295
1113  2340
1112  2365
1111  2335
1110  2300
1109  2340
1108  2275
1107  2295
1106  2350
1105  2540
1104  2150
1103  2050
1102  2225
1101  2145
1100  2270
1099  2115
1098  2245
1097  2250
1096  2470
1095  2310
1094  2035
1093  2320
1092  2260
1091  2245
1090  2175
1089  2180
1088  2185
1087  2180
1086  2380
1085  2150
1084  2355
1083  2245
1082  2225
1081  2340
1080  2090
1079  2225
1078  1970
1077  2275
1076  2375
1075  2365
1074  2290
1073  2175
1072  2110
1071  2080
1070  2040
1069  2195
1068  2170
1067  2320
1066  1950
1065  2190
1064  2195
1063  2190
1062  2195
1061  2280
1060  2070
1059  2315
1058  2030
1057  2125
1056  2265
1055  2005
1054  2195
1053  2150
1052  1910
1051  2080
1050  2160
1049  2065
1048  1965
1047  2155
1046  2090
1045  2340
1044  2185
1043  2100
1042  2100
1041  2235
1040  2095
1039  2215
1038  2030
1037  2175
1036  1985
1035  1940
1034  2210
1033  2070
1032  2145
1031  2150
1030  2200
1029  2265
1028  2155
1027  2275
1026  2105
1025  2335
1024  2245
1023  2205
1022  2200
1021  2265
1020  2360
1019  2190
1018  2170
1017  2055
1016  2115
1015  2310
1014  2150
1013  2190
1012  2180
1011  2150
1010  1810
1009  2210
1008  2235
1007  2360
1006  2355
1005  2210
1004  2240
1003  2425
1002  2420
1001  2130
1000  2170
999  2290
998  2320
997  2145
996  2335
995  2015
994  1945
993  2100
992  1960
991  2055
990  2160
989  2120
988  2035
987  2395
986  2355
985  2580
984  2575
983  2915
982  2540
981  2835
980  2265
979  2080
978  1905
977  1910
976  1890
975  1780
974  1785
973  1590
972  1750
971  1425
970  1305
969  1310
968  1360
967  1335
966  1380
965  1280
964  1335
963  1430
962  1335
961  1360
960  1260
959  1370
958  1205
957  1375
956  1195
955  1280
954  1315
953  1435
952  1515
951  1385
950  1270
949  1245
948  1350
947  1390
946  1370
945  1260
944  1275
943  1245
942  1290
941  1415
940  1230
939  1400
938  1335
937  1380
936  1380
935  1145
934  1330
933  1400
932  1540
931  1355
930  1245
929  1260
928  1215
927  1380
926  1370
925  1455
924  1285
923  1430
922  1340
921  1320
920  1225
919  1185
918  1155
917  1185
916  1395
915  1445
914  1335
913  1190
912  1335
911  1270
910  1235
909  1405
908  1320
907  1340
906  1225
905  1240
904  1225
903  1300
902  1355
901  1380
900  1210
899  2285
898  1240
897  1365
896  1225
895  1145
894  1325
893  1245
892  1325
891  1410
890  1420
889  1255
888  1310
887  1455
886  1445
885  1250
884  1180
883  1275
882  1445
881  1245
880  1195
879  1320
878  1305
877  1230
876  1280
875  1205
874  1255
873  1245
872  1260
871  1290
870  1175
869  1200
868  1155
867  1315
866  1280
865  1310
864  1215
863  1555
862  1300
861  1270
860  1175
859  1290
858  1300
857  1360
856  1255
855  1325
854  1165
853  1285
852  1340
851  1190
850  1235
849  1160
848  1365
847  1240
846  1115
845  1285
844  1420
843  1275
842  1150
841  1350
840  1305
839  1310
838  1250
837  1150
836  1310
835  1260
834  1360
833  1250
832  1325
831  1115
830  1290
829  1235
828  1155
827  1380
826  1255
825  1130
824  1345
823  1355
822  1285
821  1235
820  1380
819  1260
818  1310
817  1265
816  1250
815  1145
814  1270
813  1245
812  1155
811  1290
810  1195
809  1240
808  1220
807  1395
806  1345
805  1125
804  1320
803  1280
802  1340
801  1340
800  1290
799  1315
798  1310
797  1435
796  1360
795  1320
794  1240
793  1220
792  1280
791  1245
790  1170
789  1215
788  1220
787  1330
786  1240
785  1315
784  1160
783  1385
782  1310
781  1215
780  1215
779  1230
778  1430
777  1420
776  1310
775  1135
774  1305
773  1125
772  1315
771  1225
770  1235
769  1325
768  1430
767  1370
766  1400
765  1285
764  1385
763  1365
762  1215
761  1295
760  1305
759  1180
758  1410
757  1310
756  1260
755  1375
754  1350
753  1195
752  1365
751  1440
750  1270
749  1380
748  1325
747  1385
746  1155
745  1325
744  1300
743  1355
742  1165
741  1220
740  1275
739  1350
738  1350
737  1230
736  1205
735  1310
734  1380
733  1325
732  1405
731  1370
730  1285
729  1250
728  1225
727  1435
726  1340
725  1375
724  1295
723  1400
722  1285
721  1290
720  1240
719  1405
718  1390
717  1295
716  1380
715  1295
714  1425
713  1270
712  1380
711  1270
710  1280
709  1375
708  1370
707  1360
706  1270
705  1290
704  1335
703  1350
702  1325
701  1335
700  1410
699  1445
698  1315
697  1345
696  1395
695  1310
694  1285
693  1410
692  1325
691  1350
690  1340
689  1365
688  1240
687  1425
686  1340
685  1385
684  1205
683  1295
682  1400
681  1315
680  1280
679  1450
678  1480
677  1200
676  1460
675  1330
674  1425
673  1440
672  1350
671  1320
670  1325
669  1285
668  1375
667  1310
666  1515
665  1345
664  1355
663  1315
662  1490
661  1270
660  1530
659  1365
658  1415
657  1450
656  1300
655  1275
654  1505
653  1350
652  1530
651  1415
650  1375
649  1405
648  1520
647  1340
646  1420
645  1515
644  1535
643  1515
642  1415
641  1440
640  1365
639  1500
638  1550
637  1420
636  1540
635  1465
634  1440
633  1545
632  1475
631  1480
630  1545
629  1400
628  1420
627  1430
626  1510
625  1445
624  1460
623  1455
622  1490
621  1395
620  1470
619  1495
618  1600
617  1510
616  1425
615  1570
614  1575
613  1475
612  1440
611  1595
610  1395
609  1700
608  1690
607  1515
606  1630
605  1530
604  1360
603  1525
602  1420
601  1515
600  1635
599  1560
598  1440
597  1540
596  1495
595  1425
594  1465
593  1480
592  1615
591  1550
590  1550
589  1665
588  1585
587  1600
586  1580
585  1500
584  1700
583  1555
582  1670
581  1675
580  1675
579  1565
578  1615
577  1755
576  1590
575  1635
574  1490
573  1500
572  1465
571  1535
570  1635
569  1635
568  1605
567  1520
566  1575
565  1535
564  1680
563  1590
562  1720
561  1905
560  1880
559  1775
558  1985
557  1785
556  1610
555  1605
554  1640
553  1590
552  1335
551  1455
550  1480
549  1370
548  1120
547  1310
546  1145
545  940
544  920
543  945
542  960
541  1010
540  945
539  1130
538  1750
537  3680
536  7090
535  6715
534  3485
533  1385
532  1040
531  960
530  900
529  790
528  895
527  1080
526  1160
525  1205
524  1010
523  985
522  740
521  715
520  800
519  705
518  685
517  735
516  755
515  690
514  640
513  745
512  875
511  700
510  775
509  665
508  655
507  820
506  680
505  700
504  715
503  695
502  800
501  755
500  705
499  730
498  715
497  795
496  740
495  660
494  745
493  685
492  720
491  740
490  635
489  750
488  755
487  705
486  725
485  685
484  735
483  805
482  715
481  770
480  775
479  720
478  880
477  695
476  715
475  680
474  695
473  705
472  710
471  730
470  650
469  730
468  630
467  680
466  680
465  690
464  740
463  730
462  855
461  610
460  790
459  690
458  715
457  695
456  730
455  655
454  750
453  745
452  685
451  675
450  700
449  640
448  595
447  635
446  620
445  805
444  670
443  820
442  800
441  610
440  595
439  730
438  675
437  755
436  670
435  705
434  700
433  700
432  625
431  830
430  745
429  730
428  695
427  740
426  770
425  705
424  660
423  700
422  770
421  700
420  690
419  670
418  770
417  640
416  770
415  755
414  700
413  755
412  740
411  745
410  730
409  765
408  685
407  750
406  770
405  720
404  780
403  785
402  740
401  740
400  735
399  725
398  735
397  745
396  760
395  715
394  620
393  605
392  625
391  730
390  785
389  635
388  745
387  720
386  590
385  610
384  755
383  715
382  720
381  725
380  665
379  675
378  750
377  690
376  730
375  710
374  785
373  685
372  700
371  705
370  590
369  740
368  685
367  785
366  685
365  690
364  695
363  730
362  745
361  635
360  725
359  815
358  710
357  725
356  775
355  710
354  690
353  760
352  815
351  765
350  630
349  755
348  775
347  750
346  770
345  730
344  695
343  645
342  680
341  705
340  750
339  690
338  685
337  720
336  695
335  610
334  640
333  745
332  725
331  595
330  675
329  850
328  620
327  785
326  775
325  665
324  670
323  635
322  740
321  695
320  720
319  700
318  710
317  730
316  730
315  710
314  740
313  720
312  740
311  790
310  720
309  695
308  715
307  705
306  710
305  705
304  720
303  745
302  735
301  685
300  785
299  725
298  615
297  805
296  785
295  735
294  750
293  770
292  665
291  780
290  855
289  875
288  850
287  860
286  795
285  640
284  830
283  815
282  770
281  705
280  655
279  715
278  705
277  730
276  710
275  740
274  745
273  710
272  735
271  650
270  705
269  660
268  725
267  720
266  755
265  700
264  695
263  800
262  780
261  675
260  795
259  630
258  595
257  805
256  685
255  645
254  720
253  700
252  845
251  710
250  690
249  775
248  850
247  720
246  720
245  755
244  715
243  770
242  815
241  765
240  710
239  880
238  750
237  720
236  780
235  840
234  730
233  730
232  835
231  800
230  855
229  665
228  790
227  705
226  735
225  830
224  630
223  710
222  630
221  630
220  685
219  780
218  620
217  635
216  675
215  660
214  790
213  670
212  730
211  710
210  765
209  815
208  765
207  615
206  640
205  735
204  700
203  700
202  795
201  610
200  905
199  730
198  680
197  670
196  790
195  845
194  770
193  755
192  770
191  725
190  675
189  765
188  740
187  840
186  790
185  745
184  910
183  775
182  835
181  750
180  735
179  775
178  755
177  890
176  715
175  845
174  795
173  755
172  655
171  745
170  695
169  665
168  670
167  565
166  660
165  605
164  620
163  750
162  715
161  755
160  710
159  1200
158  1600
157  1815
156  1625
155  815
154  895
153  685
152  650
151  605
150  640
149  700
148  775
147  680
146  665
145  580
144  580
143  585
142  540
141  530
140  505
139  595
138  570
137  515
136  550
135  560
134  630
133  625
132  585
131  530
130  540
129  640
128  695
127  605
126  550
125  575
124  580
123  515
122  605
121  535
120  515
119  435
118  535
117  430
116  500
115  380
114  420
113  440
112  445
111  455
110  570
109  550
108  960
107  1665
106  1520
105  1240
104  635
103  475
102  400
101  365
100  345
99  495
98  460
97  465
96  505
95  575
94  395
93  460
92  440
91  315
90  425
89  460
88  525
87  465
86  455
85  515
84  530
83  440
82  465
81  390
80  435
79  345
78  430
77  420
76  350
75  500
74  470
73  405
72  355
71  410
70  420
69  345
68  330
67  395
66  355
65  460
64  390
63  355
62  350
61  345
60  400
59  395
58  390
57  395
56  465
55  425
54  400
53  390
52  390
51  425
50  355
49  410
48  365
47  365
46  380
45  440
44  330
43  395
42  375
41  355
40  360
39  445
38  385
37  445
36  480
35  420
34  440
33  435
32  390
31  475
30  555
29  575
28  575
27  565
26  515
25  385
24  315
23  325
22  345
21  355
20  300
19  320
18  350
17  405
16  465
15  430
14  380
13  285
12  355
11  370
10  355
9  435
8  290
7  320
6  280
5  370
4  350
3  325
2  330
1  310
-2.2737368e-013  345
-1  320
-2  290
-3  310
-4  290

# Region:            Ba3d
# Acquisition Date:  09/01/22 15:44:38 UTC
# Analysis Method:   XPS
# Analyzer:          Phoibos 100 R6
# Analyzer Lens:     LargeArea:1.5kV
# Analyzer Slit:     1:0.2x20\B:open
# Scan Mode:         FixedAnalyzerTransmission
# Curves/Scan:       1
# Values/Curve:      121
# Dwell Time:        0.8
# Excitation Energy: 1486.61
# Binding Energy:    789
# Pass Energy:       30
# Bias Voltage:      90
# Detector Voltage:  2600
# Eff. Workfunction: 4.309
# Source:            X-Ray Dummy
# Comment:           
#
# Cycle: 0
# Number of Scans: 1
#
# Cycle: 0, Curve: 0
# Acquisition Date: 09/01/22 15:44:38 UTC
#
# ColumnLabels: energy counts/s
#
789  1545
788.9  1637.5
788.8  1622.5
788.7  1536.25
788.6  1643.75
788.5  1562.5
788.4  1616.25
788.3  1717.5
788.2  1665
788.1  1723.75
788  1560
787.9  1640
787.8  1606.25
787.7  1690
787.6  1627.5
787.5  1640
787.4  1695
787.3  1678.75
787.2  1638.75
787.1  1705
787  1728.75
786.9  1718.75
786.8  1620
786.7  1640
786.6  1728.75
786.5  1630
786.4  1691.25
786.3  1663.75
786.2  1708.75
786.1  1606.25
786  1627.5
785.9  1642.5
785.8  1607.5
785.7  1713.75
785.6  1691.25
785.5  1665
785.4  1717.5
785.3  1556.25
785.2  1657.5
785.1  1603.75
785  1702.5
784.9  1641.25
784.8  1562.5
784.7  1688.75
784.6  1662.5
784.5  1651.25
784.4  1692.5
784.3  1647.5
784.2  1521.25
784.1  1622.5
784  1657.5
783.9  1733.75
783.8  1671.25
783.7  1631.25
783.6  1665
783.5  1668.75
783.4  1628.75
783.3  1618.75
783.2  1663.75
783.1  1595
783  1596.25
782.9  1711.25
782.8  1638.75
782.7  1545
782.6  1702.5
782.5  1605
782.4  1648.75
782.3  1718.75
782.2  1727.5
782.1  1600
782  1697.5
781.9  1642.5
781.8  1681.25
781.7  1670
781.6  1623.75
781.5  1641.25
781.4  1677.5
781.3  1672.5
781.2  1590
781.1  1636.25
781  1681.25
780.9  1671.25
780.8  1638.75
780.7  1625
780.6  1723.75
780.5  1661.25
780.4  1591.25
780.3  1712.5
780.2  1622.5
780.1  1570
780  1640
779.9  1610
779.8  1601.25
779.7  1570
779.6  1640
779.5  1671.25
779.4  1625
779.3  1618.75
779.2  1675
779.1  1688.75
779  1627.5
778.9  1593.75
778.8  1636.25
778.7  1541.25
778.6  1643.75
778.5  1661.25
778.4  1661.25
778.3  1643.75
778.2  1556.25
778.1  1667.5
778  1617.5
777.9  1597.5
777.8  1590
777.7  1591.25
777.6  1632.5
777.5  1615
777.4  1592.5
777.3  1640
777.2  1546.25
777.1  1566.25
777  1607.5

# Region:            C1s
# Acquisition Date:  09/01/22 15:38:02 UTC
# Analysis Method:   XPS
# Analyzer:          Phoibos 100 R6
# Analyzer Lens:     LargeArea:1.5kV
# Analyzer Slit:     1:0.2x20\B:open
# Scan Mode:         FixedAnalyzerTransmission
# Curves/Scan:       1
# Values/Curve:      151
# Dwell Time:        0.8
# Excitation Energy: 1486.61
# Binding Energy:    295
# Pass Energy:       30
# Bias Voltage:      90
# Detector Voltage:  2600
# Eff. Workfunction: 4.309
# Source:            X-Ray Dummy
# Comment:           
#
# Cycle: 0
# Number of Scans: 2
#
# Cycle: 0, Curve: 0
# Acquisition Date: 09/01/22 15:38:02 UTC
#
# ColumnLabels: energy counts/s
#
295  554.375
294.9  566.25
294.8  615
294.7  529.375
294.6  559.375
294.5  576.25
294.4  591.875
294.3  539.375
294.2  543.75
294.1  578.75
294  576.25
293.9  540.625
293.8  541.875
293.7  550
293.6  568.75
293.5  533.125
293.4  525
293.3  555.625
293.2  547.5
293.1  601.25
293  551.875
292.9  543.75
292.8  587.5
292.7  548.125
292.6  572.5
292.5  520.625
292.4  533.75
292.3  578.125
292.2  552.5
292.1  550
292  583.75
291.9  579.375
291.8  583.75
291.7  583.75
291.6  586.875
291.5  571.25
291.4  574.375
291.3  567.5
291.2  593.125
291.1  584.375
291  616.25
290.9  610.625
290.8  613.75
290.7  596.25
290.6  581.25
290.5  585
290.4  636.875
290.3  652.5
290.2  623.125
290.1  620
290  666.25
289.9  648.75
289.8  627.5
289.7  640.625
289.6  630.625
289.5  684.375
289.4  650.625
289.3  682.5
289.2  670
289.1  655
289  660.625
288.9  664.375
288.8  641.875
288.7  682.5
288.6  660.625
288.5  677.5
288.4  719.375
288.3  708.125
288.2  701.25
288.1  695
288  684.375
287.9  712.5
287.8  701.25
287.7  679.375
287.6  662.5
287.5  683.125
287.4  723.125
287.3  676.875
287.2  673.125
287.1  685
287  681.875
286.9  635.625
286.8  630.625
286.7  648.75
286.6  642.5
286.5  628.75
286.4  593.75
286.3  635
286.2  652.5
286.1  596.25
286  578.125
285.9  598.75
285.8  595.625
285.7  595
285.6  596.25
285.5  578.75
285.4  590.625
285.3  565
285.2  603.75
285.1  541.25
285  568.125
284.9  560.625
284.8  576.875
284.7  567.5
284.6  573.75
284.5  582.5
284.4  546.875
284.3  562.5
284.2  543.75
284.1  549.375
284  580.625
283.9  544.375
283.8  540.625
283.7  550
283.6  568.75
283.5  571.875
283.4  575.625
283.3  573.125
283.2  530.625
283.1  545.625
283  558.75
282.9  535.625
282.8  571.25
282.7  558.75
282.6  522.5
282.5  560
282.4  545.625
282.3  557.5
282.2  543.125
282.1  565
282  606.875
281.9  559.375
281.8  561.25
281.7  507.5
281.6  534.375
281.5  529.375
281.4  563.75
281.3  539.375
281.2  563.125
281.1  557.5
281  571.875
280.9  549.375
280.8  545
280.7  526.25
280.6  551.875
280.5  545
280.4  524.375
280.3  544.375
280.2  543.75
280.1  540.625
280  558.75

# Region:            O1s
# Acquisition Date:  09/01/22 15:32:50 UTC
# Analysis Method:   XPS
# Analyzer:          Phoibos 100 R6
# Analyzer Lens:     LargeArea:1.5kV
# Analyzer Slit:     1:0.2x20\B:open
# Scan Mode:         FixedAnalyzerTransmission
# Curves/Scan:       1
# Values/Curve:      141
# Dwell Time:        0.8
# Excitation Energy: 1486.61
# Binding Energy:    541
# Pass Energy:       30
# Bias Voltage:      90
# Detector Voltage:  2600
# Eff. Workfunction: 4.309
# Source:            X-Ray Dummy
# Comment:           
#
# Cycle: 0
# Number of Scans: 1
#
# Cycle: 0, Curve: 0
# Acquisition Date: 09/01/22 15:32:50 UTC
#
# ColumnLabels: energy counts/s
#
541  896.25
540.9  901.25
540.8  877.5
540.7  835
540.6  906.25
540.5  822.5
540.4  953.75
540.3  923.75
540.2  892.5
540.1  1002.5
540  927.5
539.9  927.5
539.8  937.5
539.7  968.75
539.6  1001.25
539.5  1007.5
539.4  998.75
539.3  1001.25
539.2  986.25
539.1  1033.75
539  1146.25
538.9  1056.25
538.8  1090
538.7  1107.5
538.6  1102.5
538.5  1166.25
538.4  1165
538.3  1250
538.2  1326.25
538.1  1316.25
538  1413.75
537.9  1627.5
537.8  1610
537.7  1727.5
537.6  1875
537.5  2147.5
537.4  2300
537.3  2512.5
537.2  2717.5
537.1  3191.25
537  3268.75
536.9  3613.75
536.8  4147.5
536.7  4495
536.6  4940
536.5  5235
536.4  5747.5
536.3  5942.5
536.2  6527.5
536.1  6760
536  6730
535.9  7183.75
535.8  7271.25
535.7  7273.75
535.6  7155
535.5  7110
535.4  6990
535.3  6826.25
535.2  6403.75
535.1  6045
535  5717.5
534.9  5218.75
534.8  4907.5
534.7  4543.75
534.6  3878.75
534.5  3563.75
534.4  3235
534.3  3101.25
534.2  2728.75
534.1  2406.25
534  2311.25
533.9  2012.5
533.8  1792.5
533.7  1651.25
533.6  1495
533.5  1530
533.4  1355
533.3  1298.75
533.2  1231.25
533.1  1202.5
533  1125
532.9  1041.25
532.8  1035
532.7  1105
532.6  950
532.5  1006.25
532.4  872.5
532.3  945
532.2  935
532.1  912.5
532  846.25
531.9  918.75
531.8  950
531.7  908.75
531.6  956.25
531.5  901.25
531.4  860
531.3  823.75
531.2  900
531.1  801.25
531  816.25
530.9  896.25
530.8  850
530.7  871.25
530.6  817.5
530.5  798.75
530.4  851.25
530.3  846.25
530.2  817.5
530.1  845
530  793.75
529.9  795
529.8  827.5
529.7  836.25
529.6  787.5
529.5  761.25
529.4  796.25
529.3  796.25
529.2  800
529.1  793.75
529  748.75
528.9  818.75
528.8  786.25
528.7  780
528.6  796.25
528.5  787.5
528.4  740
528.3  812.5
528.2  756.25
528.1  848.75
528  845
527.9  878.75
527.8  748.75
527.7  911.25
527.6  816.25
527.5  795
527.4  900
527.3  858.75
527.2  905
527.1  981.25
527  927.5

# Region:            N1s
# Acquisition Date:  09/01/22 15:34:29 UTC
# Analysis Method:   XPS
# Analyzer:          Phoibos 100 R6
# Analyzer Lens:     LargeArea:1.5kV
# Analyzer Slit:     1:0.2x20\B:open
# Scan Mode:         FixedAnalyzerTransmission
# Curves/Scan:       1
# Values/Curve:      121
# Dwell Time:        0.8
# Excitation Energy: 1486.61
# Binding Energy:    409
# Pass Energy:       30
# Bias Voltage:      90
# Detector Voltage:  2600
# Eff. Workfunction: 4.309
# Source:            X-Ray Dummy
# Comment:           
#
# Cycle: 0
# Number of Scans: 1
#
# Cycle: 0, Curve: 0
# Acquisition Date: 09/01/22 15:34:29 UTC
#
# ColumnLabels: energy counts/s
#
409  633.75
408.9  608.75
408.8  623.75
408.7  597.5
408.6  658.75
408.5  632.5
408.4  607.5
408.3  578.75
408.2  576.25
408.1  618.75
408  640
407.9  602.5
407.8  613.75
407.7  690
407.6  591.25
407.5  596.25
407.4  625
407.3  590
407.2  602.5
407.1  601.25
407  636.25
406.9  556.25
406.8  606.25
406.7  596.25
406.6  591.25
406.5  618.75
406.4  596.25
406.3  615
406.2  617.5
406.1  555
406  570
405.9  635
405.8  580
405.7  560
405.6  645
405.5  611.25
405.4  562.5
405.3  606.25
405.2  608.75
405.1  597.5
405  611.25
404.9  646.25
404.8  641.25
404.7  652.5
404.6  665
404.5  637.5
404.4  658.75
404.3  653.75
404.2  631.25
404.1  638.75
404  605
403.9  608.75
403.8  663.75
403.7  670
403.6  620
403.5  621.25
403.4  697.5
403.3  650
403.2  616.25
403.1  606.25
403  652.5
402.9  601.25
402.8  596.25
402.7  647.5
402.6  608.75
402.5  632.5
402.4  665
402.3  605
402.2  667.5
402.1  622.5
402  585
401.9  606.25
401.8  603.75
401.7  645
401.6  666.25
401.5  668.75
401.4  643.75
401.3  646.25
401.2  638.75
401.1  617.5
401  632.5
400.9  626.25
400.8  602.5
400.7  585
400.6  640
400.5  598.75
400.4  605
400.3  605
400.2  593.75
400.1  583.75
400  661.25
399.9  618.75
399.8  576.25
399.7  628.75
399.6  623.75
399.5  593.75
399.4  585
399.3  646.25
399.2  652.5
399.1  641.25
399  673.75
398.9  623.75
398.8  582.5
398.7  588.75
398.6  556.25
398.5  600
398.4  555
398.3  621.25
398.2  640
398.1  585
398  575
397.9  606.25
397.8  638.75
397.7  605
397.6  576.25
397.5  620
397.4  616.25
397.3  635
397.2  595
397.1  602.5
397  632.5

# Region:            Si2p
# Acquisition Date:  09/01/22 15:35:59 UTC
# Analysis Method:   XPS
# Analyzer:          Phoibos 100 R6
# Analyzer Lens:     LargeArea:1.5kV
# Analyzer Slit:     1:0.2x20\B:open
# Scan Mode:         FixedAnalyzerTransmission
# Curves/Scan:       1
# Values/Curve:      111
# Dwell Time:        0.8
# Excitation Energy: 1486.61
# Binding Energy:    112
# Pass Energy:       30
# Bias Voltage:      90
# Detector Voltage:  2600
# Eff. Workfunction: 4.309
# Source:            X-Ray Dummy
# Comment:           
#
# Cycle: 0
# Number of Scans: 1
#
# Cycle: 0, Curve: 0
# Acquisition Date: 09/01/22 15:35:59 UTC
#
# ColumnLabels: energy counts/s
#
112  316.25
111.9  306.25
111.8  293.75
111.7  348.75
111.6  311.25
111.5  360
111.4  353.75
111.3  333.75
111.2  320
111.1  278.75
111  365
110.9  307.5
110.8  340
110.7  333.75
110.6  338.75
110.5  347.5
110.4  332.5
110.3  337.5
110.2  313.75
110.1  393.75
110  371.25
109.9  342.5
109.8  351.25
109.7  342.5
109.6  360
109.5  345
109.4  315
109.3  352.5
109.2  320
109.1  395
109  418.75
108.9  373.75
108.8  415
108.7  423.75
108.6  445
108.5  428.75
108.4  458.75
108.3  546.25
108.2  501.25
108.1  585
108  666.25
107.9  611.25
107.8  707.5
107.7  760
107.6  750
107.5  790
107.4  966.25
107.3  998.75
107.2  985
107.1  1056.25
107  1148.75
106.9  1141.25
106.8  1253.75
106.7  1186.25
106.6  1215
106.5  1246.25
106.4  1248.75
106.3  1230
106.2  1290
106.1  1241.25
106  1130
105.9  1177.5
105.8  1070
105.7  987.5
105.6  971.25
105.5  888.75
105.4  832.5
105.3  795
105.2  720
105.1  728.75
105  656.25
104.9  631.25
104.8  580
104.7  592.5
104.6  513.75
104.5  445
104.4  435
104.3  437.5
104.2  447.5
104.1  452.5
104  388.75
103.9  365
103.8  332.5
103.7  391.25
103.6  382.5
103.5  352.5
103.4  341.25
103.3  313.75
103.2  348.75
103.1  350
103  340
102.9  311.25
102.8  318.75
102.7  316.25
102.6  298.75
102.5  347.5
102.4  322.5
102.3  312.5
102.2  330
102.1  332.5
102  338.75
101.9  320
101.8  302.5
101.7  315
101.6  312.5
101.5  297.5
101.4  327.5
101.3  317.5
101.2  321.25
101.1  288.75
101  321.25

