# Created by:        SpecsLab Prodigy, Version 4.60.2-r85849 
#
# XY-Serializer Export Settings:
#   Comment Prefix:           #
#   Output meta data:         yes
#   Energy Axis:              Binding Energy
#   Count Rate:               Counts per Second
#   Separate Scan Data:       no
#   Separate Channel Data:    no
#   External Channel Data:    yes
#   Transmission Function:    no
#   ErrorBar:                 no
#   Operation Results:        yes
#   Time Zone Format:         UTC
#
# Group:             Spectrum Group
#
# Region:            C1s
# Acquisition Date:  09/01/22 23:29:08 UTC
# Analysis Method:   XPS
# Analyzer:          Phoibos 100 R6
# Analyzer Lens:     LargeArea:1.5kV
# Analyzer Slit:     1:0.2x20\B:open
# Scan Mode:         FixedAnalyzerTransmission
# Curves/Scan:       1
# Values/Curve:      151
# Dwell Time:        0.8
# Excitation Energy: 1486.61
# Binding Energy:    295
# Pass Energy:       30
# Bias Voltage:      90
# Detector Voltage:  2600
# Eff. Workfunction: 4.309
# Source:            X-Ray Dummy
# Comment:           
#
# Cycle: 0
# Number of Scans: 50
#
# Cycle: 0, Curve: 0
# Acquisition Date: 09/01/22 23:29:08 UTC
#
# ColumnLabels: energy counts/s
#
295  599.975
294.9  608.275
294.8  602.15
294.7  606.875
294.6  602.075
294.5  602.925
294.4  602.775
294.3  605
294.2  601.775
294.1  604.075
294  600.05
293.9  608.85
293.8  605.15
293.7  602.7
293.6  606.675
293.5  608.55
293.4  595.45
293.3  606.375
293.2  606.75
293.1  608.725
293  613.725
292.9  602.05
292.8  601.375
292.7  609.95
292.6  603.95
292.5  609.4
292.4  602.15
292.3  612.175
292.2  617.65
292.1  611.425
292  612.25
291.9  615.675
291.8  615.4
291.7  624.65
291.6  624.075
291.5  624.25
291.4  625.35
291.3  621.875
291.2  636.25
291.1  636.7
291  635.075
290.9  644.775
290.8  649.35
290.7  652.4
290.6  659.025
290.5  668.8
290.4  676.325
290.3  687.125
290.2  691.175
290.1  696.975
290  701.55
289.9  715.35
289.8  715.675
289.7  720.025
289.6  742.625
289.5  748.55
289.4  757.35
289.3  754.025
289.2  758.275
289.1  758.3
289  770.275
288.9  771.325
288.8  781.325
288.7  780.25
288.6  781.75
288.5  782.925
288.4  792.975
288.3  790.1
288.2  793.425
288.1  789.875
288  800.65
287.9  797.225
287.8  797.35
287.7  788.8
287.6  791.175
287.5  793.525
287.4  779.35
287.3  770.35
287.2  759.875
287.1  749.6
287  749.525
286.9  743.95
286.8  725.325
286.7  711.325
286.6  704.725
286.5  691.175
286.4  690.55
286.3  680.525
286.2  680.725
286.1  673
286  661.525
285.9  659.25
285.8  653.475
285.7  651.225
285.6  645.75
285.5  640.325
285.4  641.575
285.3  633.625
285.2  624.175
285.1  632.95
285  625.4
284.9  614.425
284.8  621.05
284.7  610.55
284.6  614.15
284.5  610.975
284.4  613.225
284.3  611.2
284.2  611.05
284.1  616.75
284  608.975
283.9  604.2
283.8  606.6
283.7  617.65
283.6  609.875
283.5  601.4
283.4  604.35
283.3  611.1
283.2  605.675
283.1  603
283  606.4
282.9  610.9
282.8  610.225
282.7  603.5
282.6  604.075
282.5  607.1
282.4  602
282.3  599.475
282.2  600.475
282.1  605
282  603.025
281.9  607.05
281.8  593.75
281.7  607.25
281.6  602
281.5  605.325
281.4  604.675
281.3  600.05
281.2  597.525
281.1  595.5
281  600.325
280.9  598.625
280.8  601.8
280.7  602.375
280.6  594.175
280.5  595.725
280.4  601.425
280.3  596.95
280.2  597.325
280.1  604.225
280  602.725

# Region:            Ba3d
# Acquisition Date:  09/01/22 21:35:06 UTC
# Analysis Method:   XPS
# Analyzer:          Phoibos 100 R6
# Analyzer Lens:     LargeArea:1.5kV
# Analyzer Slit:     1:0.2x20\B:open
# Scan Mode:         FixedAnalyzerTransmission
# Curves/Scan:       1
# Values/Curve:      121
# Dwell Time:        0.8
# Excitation Energy: 1486.61
# Binding Energy:    789
# Pass Energy:       30
# Bias Voltage:      90
# Detector Voltage:  2600
# Eff. Workfunction: 4.309
# Source:            X-Ray Dummy
# Comment:           
#
# Cycle: 0
# Number of Scans: 20
#
# Cycle: 0, Curve: 0
# Acquisition Date: 09/01/22 21:35:06 UTC
#
# ColumnLabels: energy counts/s
#
789  1727.5
788.9  1703.8125
788.8  1713.25
788.7  1705.25
788.6  1707.5
788.5  1709
788.4  1700.125
788.3  1721.1875
788.2  1719.625
788.1  1712.9375
788  1726.3125
787.9  1711.4375
787.8  1709.875
787.7  1703.5
787.6  1718.6875
787.5  1717.625
787.4  1713.75
787.3  1710.8125
787.2  1707.3125
787.1  1702.4375
787  1718.3125
786.9  1710.8125
786.8  1692
786.7  1711.125
786.6  1705.0625
786.5  1705.25
786.4  1714
786.3  1706.375
786.2  1722.1875
786.1  1711.375
786  1710.0625
785.9  1725.375
785.8  1679.375
785.7  1693.375
785.6  1710.25
785.5  1726.6875
785.4  1716.1875
785.3  1703.5
785.2  1707.3125
785.1  1714.1875
785  1713.75
784.9  1698.6875
784.8  1712.4375
784.7  1701.875
784.6  1714.3125
784.5  1706.9375
784.4  1715.1875
784.3  1702.75
784.2  1690.125
784.1  1697.0625
784  1725.6875
783.9  1695.1875
783.8  1688.5
783.7  1691.9375
783.6  1700.8125
783.5  1702.5625
783.4  1715.5
783.3  1707.4375
783.2  1715.3125
783.1  1706.875
783  1712.375
782.9  1711.8125
782.8  1706.75
782.7  1707.75
782.6  1726.0625
782.5  1732
782.4  1722.125
782.3  1717.625
782.2  1699.3125
782.1  1709.375
782  1726.375
781.9  1721.4375
781.8  1710.6875
781.7  1727.1875
781.6  1722.9375
781.5  1735
781.4  1717.0625
781.3  1720.25
781.2  1745
781.1  1749.25
781  1737.75
780.9  1716.9375
780.8  1724.5
780.7  1726.4375
780.6  1734.375
780.5  1728.875
780.4  1740.75
780.3  1729.9375
780.2  1714.3125
780.1  1706.75
780  1706.25
779.9  1720.125
779.8  1714.8125
779.7  1709.5
779.6  1708.8125
779.5  1705.3125
779.4  1711.1875
779.3  1694.3125
779.2  1705.125
779.1  1702.0625
779  1683.3125
778.9  1682.5625
778.8  1673.5625
778.7  1700.5625
778.6  1693.6875
778.5  1692.875
778.4  1693.1875
778.3  1687.5625
778.2  1682.5625
778.1  1687.9375
778  1689.1875
777.9  1691.25
777.8  1686.75
777.7  1691.3125
777.6  1672.0625
777.5  1693.1875
777.4  1668.3125
777.3  1695.4375
777.2  1687.25
777.1  1671.625
777  1680.375

# Region:            Cl2p
# Acquisition Date:  09/01/22 21:36:37 UTC
# Analysis Method:   XPS
# Analyzer:          Phoibos 100 R6
# Analyzer Lens:     LargeArea:1.5kV
# Analyzer Slit:     1:0.2x20\B:open
# Scan Mode:         FixedAnalyzerTransmission
# Curves/Scan:       1
# Values/Curve:      111
# Dwell Time:        0.8
# Excitation Energy: 1486.61
# Binding Energy:    207
# Pass Energy:       30
# Bias Voltage:      90
# Detector Voltage:  2600
# Eff. Workfunction: 4.309
# Source:            X-Ray Dummy
# Comment:           
#
# Cycle: 0
# Number of Scans: 20
#
# Cycle: 0, Curve: 0
# Acquisition Date: 09/01/22 21:36:37 UTC
#
# ColumnLabels: energy counts/s
#
207  531.25
206.9  542.1875
206.8  543.9375
206.7  546.9375
206.6  544.6875
206.5  545.25
206.4  541.8125
206.3  548.6875
206.2  538.875
206.1  549.375
206  535.375
205.9  542.375
205.8  545.5625
205.7  542.8125
205.6  553.5625
205.5  547.6875
205.4  545
205.3  553.125
205.2  551.75
205.1  544.1875
205  546.5625
204.9  547.5625
204.8  540.75
204.7  541.25
204.6  554.5
204.5  547.8125
204.4  544.4375
204.3  540.9375
204.2  554.25
204.1  548.25
204  558.1875
203.9  545.75
203.8  550
203.7  575.375
203.6  544
203.5  543.5625
203.4  559.5
203.3  551.1875
203.2  561.75
203.1  554.6875
203  545.5
202.9  555.5625
202.8  564.1875
202.7  559.5625
202.6  557.125
202.5  552.5
202.4  563.75
202.3  554.9375
202.2  557.125
202.1  546
202  550.3125
201.9  561.875
201.8  547.6875
201.7  542.0625
201.6  540.3125
201.5  538.4375
201.4  530.25
201.3  545.5
201.2  539.875
201.1  541.1875
201  539.9375
200.9  555.3125
200.8  542.9375
200.7  549.375
200.6  539.875
200.5  539.5
200.4  537.8125
200.3  540.375
200.2  541.3125
200.1  536.25
200  547.5
199.9  545.875
199.8  550.0625
199.7  548.1875
199.6  546.1875
199.5  540.875
199.4  538.4375
199.3  539.1875
199.2  538.3125
199.1  545.375
199  550.8125
198.9  546.375
198.8  538.9375
198.7  545.125
198.6  535
198.5  535.6875
198.4  545.625
198.3  553.6875
198.2  554.3125
198.1  552.1875
198  542.6875
197.9  549.8125
197.8  534
197.7  549.9375
197.6  537.75
197.5  537.125
197.4  546.5
197.3  539.875
197.2  535
197.1  535.9375
197  534.5625
196.9  541.1875
196.8  548.4375
196.7  538.875
196.6  537.125
196.5  546.125
196.4  543.625
196.3  539.25
196.2  540.125
196.1  546.8125
196  537.5625

# Region:            O1s
# Acquisition Date:  09/01/22 21:38:31 UTC
# Analysis Method:   XPS
# Analyzer:          Phoibos 100 R6
# Analyzer Lens:     LargeArea:1.5kV
# Analyzer Slit:     1:0.2x20\B:open
# Scan Mode:         FixedAnalyzerTransmission
# Curves/Scan:       1
# Values/Curve:      141
# Dwell Time:        0.8
# Excitation Energy: 1486.61
# Binding Energy:    541
# Pass Energy:       30
# Bias Voltage:      90
# Detector Voltage:  2600
# Eff. Workfunction: 4.309
# Source:            X-Ray Dummy
# Comment:           
#
# Cycle: 0
# Number of Scans: 20
#
# Cycle: 0, Curve: 0
# Acquisition Date: 09/01/22 21:38:31 UTC
#
# ColumnLabels: energy counts/s
#
541  933.0625
540.9  940.4375
540.8  946.8125
540.7  935.6875
540.6  949.375
540.5  948.375
540.4  972.6875
540.3  955.75
540.2  964.75
540.1  981.125
540  987
539.9  991.8125
539.8  1002.125
539.7  1002.5625
539.6  1018.5625
539.5  1031.0625
539.4  1045.125
539.3  1052.875
539.2  1055.9375
539.1  1087.375
539  1083.5625
538.9  1114
538.8  1139.3125
538.7  1154.125
538.6  1185.875
538.5  1203
538.4  1247.3125
538.3  1304.75
538.2  1345.5625
538.1  1415
538  1463.8125
537.9  1559.75
537.8  1675.125
537.7  1782.125
537.6  1943.9375
537.5  2096
537.4  2278.8125
537.3  2505.3125
537.2  2756.125
537.1  3052.125
537  3297.4375
536.9  3624.8125
536.8  3967
536.7  4311.3125
536.6  4668.6875
536.5  5053.875
536.4  5434.3125
536.3  5790.625
536.2  6115.8125
536.1  6392.4375
536  6651.875
535.9  6836.8125
535.8  6977.5
535.7  7015.6875
535.6  7026.0625
535.5  6956.125
535.4  6808.5
535.3  6601.5
535.2  6298.0625
535.1  6044.1875
535  5676.9375
534.9  5305.4375
534.8  4942.125
534.7  4529.6875
534.6  4160.75
534.5  3797.875
534.4  3451.0625
534.3  3145.75
534.2  2831.1875
534.1  2566.0625
534  2350.125
533.9  2149.5625
533.8  1964.375
533.7  1791.125
533.6  1685.6875
533.5  1535.4375
533.4  1463.25
533.3  1375.0625
533.2  1300.9375
533.1  1236.9375
533  1185.9375
532.9  1162.3125
532.8  1126
532.7  1084.25
532.6  1073.1875
532.5  1052.75
532.4  1028.625
532.3  1026.25
532.2  1006.25
532.1  992.75
532  991.25
531.9  984.375
531.8  970.3125
531.7  965.375
531.6  944.875
531.5  957.1875
531.4  944.0625
531.3  933.5625
531.2  940.875
531.1  935.875
531  933.8125
530.9  912.625
530.8  922.625
530.7  916.875
530.6  898.125
530.5  914.625
530.4  890.3125
530.3  887.375
530.2  872.125
530.1  877.375
530  869.3125
529.9  855.5
529.8  843.375
529.7  850.125
529.6  850.625
529.5  852.8125
529.4  843.6875
529.3  832.3125
529.2  832.375
529.1  826.9375
529  816.4375
528.9  803.9375
528.8  833.4375
528.7  824.5
528.6  817.625
528.5  804.125
528.4  817
528.3  832.625
528.2  815.6875
528.1  830.1875
528  836.75
527.9  843.5625
527.8  849.1875
527.7  868.1875
527.6  886.4375
527.5  897.4375
527.4  904.3125
527.3  931.8125
527.2  940.1875
527.1  961
527  975.875

# Region:            N1s
# Acquisition Date:  09/02/22 00:52:38 UTC
# Analysis Method:   XPS
# Analyzer:          Phoibos 100 R6
# Analyzer Lens:     LargeArea:1.5kV
# Analyzer Slit:     1:0.2x20\B:open
# Scan Mode:         FixedAnalyzerTransmission
# Curves/Scan:       1
# Values/Curve:      121
# Dwell Time:        0.8
# Excitation Energy: 1486.61
# Binding Energy:    409
# Pass Energy:       30
# Bias Voltage:      90
# Detector Voltage:  2600
# Eff. Workfunction: 4.309
# Source:            X-Ray Dummy
# Comment:           
#
# Cycle: 0
# Number of Scans: 100
#
# Cycle: 0, Curve: 0
# Acquisition Date: 09/02/22 00:52:38 UTC
#
# ColumnLabels: energy counts/s
#
409  644.075
408.9  649.875
408.8  645.0125
408.7  643.425
408.6  650
408.5  649.7
408.4  649
408.3  647.8
408.2  651.0375
408.1  646.7375
408  646.15
407.9  643.775
407.8  650.5375
407.7  651.9125
407.6  650.075
407.5  645.2625
407.4  648.7875
407.3  650.4125
407.2  654.425
407.1  651.625
407  648.8625
406.9  652.9875
406.8  657.675
406.7  653.625
406.6  656.1375
406.5  655.85
406.4  654.5
406.3  653.925
406.2  653.725
406.1  659.175
406  656.225
405.9  661.8875
405.8  655.2625
405.7  652.975
405.6  659.375
405.5  659.475
405.4  660.0125
405.3  668.3125
405.2  662.65
405.1  666
405  662.2875
404.9  669.275
404.8  672.4875
404.7  668.975
404.6  666.425
404.5  673.65
404.4  671.6
404.3  675.45
404.2  675.975
404.1  675.925
404  675.025
403.9  680.7875
403.8  683.15
403.7  679.2625
403.6  683.2125
403.5  681.875
403.4  684.175
403.3  684.95
403.2  687.8375
403.1  686.225
403  690.3875
402.9  689.65
402.8  687.775
402.7  686.825
402.6  688.65
402.5  685.2
402.4  690.025
402.3  692.2375
402.2  686.4
402.1  687.0875
402  692.475
401.9  690.275
401.8  686.125
401.7  685.8375
401.6  683.825
401.5  678.575
401.4  686.5625
401.3  687.6125
401.2  677.675
401.1  680.9
401  678.15
400.9  680.0875
400.8  677.225
400.7  673.8875
400.6  675.575
400.5  670.2875
400.4  666.8
400.3  667.5625
400.2  667.75
400.1  665.45
400  668.4625
399.9  663.4125
399.8  665.575
399.7  657.8125
399.6  656.45
399.5  661.0375
399.4  652.5625
399.3  657.3
399.2  662.35
399.1  658.55
399  661.3125
398.9  655.4375
398.8  655.15
398.7  657.1
398.6  656.225
398.5  659.2125
398.4  657.55
398.3  654.4625
398.2  660.55
398.1  650.2375
398  653.5
397.9  657.8375
397.8  658.15
397.7  657.0625
397.6  658.9375
397.5  654.1875
397.4  655.3125
397.3  654.45
397.2  653.525
397.1  659.275
397  660.2

# Region:            Si2p
# Acquisition Date:  09/01/22 20:56:24 UTC
# Analysis Method:   XPS
# Analyzer:          Phoibos 100 R6
# Analyzer Lens:     LargeArea:1.5kV
# Analyzer Slit:     1:0.2x20\B:open
# Scan Mode:         FixedAnalyzerTransmission
# Curves/Scan:       1
# Values/Curve:      111
# Dwell Time:        0.8
# Excitation Energy: 1486.61
# Binding Energy:    112
# Pass Energy:       30
# Bias Voltage:      90
# Detector Voltage:  2600
# Eff. Workfunction: 4.309
# Source:            X-Ray Dummy
# Comment:           
#
# Cycle: 0
# Number of Scans: 15
#
# Cycle: 0, Curve: 0
# Acquisition Date: 09/01/22 20:56:24 UTC
#
# ColumnLabels: energy counts/s
#
112  342.5
111.9  345.08333
111.8  343
111.7  345.41667
111.6  343.33333
111.5  343.41667
111.4  342.83333
111.3  350.25
111.2  351.33333
111.1  346.5
111  352.66667
110.9  350.83333
110.8  352.16667
110.7  356.75
110.6  360.58333
110.5  348.75
110.4  361.66667
110.3  356.33333
110.2  354.66667
110.1  359.58333
110  352.41667
109.9  361.25
109.8  365.25
109.7  369.5
109.6  371.91667
109.5  381.33333
109.4  380.75
109.3  379.41667
109.2  397.41667
109.1  389.33333
109  414.16667
108.9  403.75
108.8  420
108.7  441.08333
108.6  460.08333
108.5  471.25
108.4  489.91667
108.3  515.16667
108.2  546.58333
108.1  583.16667
108  635.91667
107.9  663.25
107.8  711.75
107.7  755.41667
107.6  805.5
107.5  861
107.4  925.08333
107.3  966.25
107.2  1021.3333
107.1  1089.8333
107  1134.5
106.9  1161.1667
106.8  1204.25
106.7  1240.25
106.6  1242.5
106.5  1264.0833
106.4  1262.1667
106.3  1266
106.2  1252.8333
106.1  1217.5833
106  1174
105.9  1147.1667
105.8  1082.5
105.7  1058.75
105.6  1005.25
105.5  929.16667
105.4  865.41667
105.3  829.16667
105.2  794.83333
105.1  728.75
105  675.33333
104.9  646.33333
104.8  599.83333
104.7  552.58333
104.6  532.83333
104.5  496.91667
104.4  493.25
104.3  469
104.2  458.08333
104.1  441
104  410.41667
103.9  409.75
103.8  400.08333
103.7  380.25
103.6  388.33333
103.5  374.91667
103.4  369.25
103.3  357.66667
103.2  356.5
103.1  360
103  353.41667
102.9  345.83333
102.8  364.25
102.7  346.66667
102.6  336.83333
102.5  348.41667
102.4  356.41667
102.3  331.66667
102.2  337.41667
102.1  333.16667
102  329.16667
101.9  338.25
101.8  333.66667
101.7  330.5
101.6  350.91667
101.5  337
101.4  329.83333
101.3  331.5
101.2  346.5
101.1  331.83333
101  326.25

# Group:             overview_HD
#
# Region:            overview
# Acquisition Date:  09/02/22 07:43:31 UTC
# Analysis Method:   XPS
# Analyzer:          Phoibos 100 R6
# Analyzer Lens:     LargeArea:1.5kV
# Analyzer Slit:     1:0.2x20\B:open
# Scan Mode:         FixedAnalyzerTransmission
# Curves/Scan:       1
# Values/Curve:      6021
# Dwell Time:        0.4
# Excitation Energy: 1486.61
# Binding Energy:    1200
# Pass Energy:       30
# Bias Voltage:      90
# Detector Voltage:  2600
# Eff. Workfunction: 4.309
# Source:            X-Ray Dummy
# Comment:           
#
# Cycle: 0
# Number of Scans: 10
#
# Cycle: 0, Curve: 0
# Acquisition Date: 09/02/22 07:43:31 UTC
#
# ColumnLabels: energy counts/s
#
1200  3709.25
1199.8  3680.25
1199.6  3666.25
1199.4  3702
1199.2  3717.25
1199  3718.25
1198.8  3665.5
1198.6  3700.75
1198.4  3670.25
1198.2  3668.75
1198  3661.25
1197.8  3654.5
1197.6  3700.75
1197.4  3685.25
1197.2  3645.5
1197  3682.25
1196.8  3648
1196.6  3695
1196.4  3659
1196.2  3717.5
1196  3676.25
1195.8  3689
1195.6  3710.25
1195.4  3628.5
1195.2  3705
1195  3676.5
1194.8  3711.25
1194.6  3630.5
1194.4  3738.75
1194.2  3620.5
1194  3656
1193.8  3663.75
1193.6  3665
1193.4  3647
1193.2  3665
1193  3650
1192.8  3640.75
1192.6  3627.25
1192.4  3670
1192.2  3649.25
1192  3624.5
1191.8  3657
1191.6  3648.5
1191.4  3682.75
1191.2  3646.5
1191  3667.25
1190.8  3658.75
1190.6  3631
1190.4  3664
1190.2  3664
1190  3661.25
1189.8  3619
1189.6  3694.5
1189.4  3674.25
1189.2  3583
1189  3622.75
1188.8  3618
1188.6  3628.75
1188.4  3594
1188.2  3618.5
1188  3569
1187.8  3640.25
1187.6  3582
1187.4  3623.75
1187.2  3574.25
1187  3607.75
1186.8  3635
1186.6  3622.5
1186.4  3595.25
1186.2  3595
1186  3554.75
1185.8  3625.5
1185.6  3662
1185.4  3627.25
1185.2  3591.5
1185  3581.25
1184.8  3546.25
1184.6  3574.75
1184.4  3560.25
1184.2  3620.5
1184  3531
1183.8  3559
1183.6  3589.25
1183.4  3528
1183.2  3591.5
1183  3619.25
1182.8  3557.25
1182.6  3553
1182.4  3606
1182.2  3537.75
1182  3539.75
1181.8  3608.25
1181.6  3615.5
1181.4  3556.25
1181.2  3615.25
1181  3582
1180.8  3596.25
1180.6  3559.5
1180.4  3578
1180.2  3619.75
1180  3561.75
1179.8  3537.5
1179.6  3534.25
1179.4  3598.25
1179.2  3572.75
1179  3583.75
1178.8  3592
1178.6  3551.25
1178.4  3603
1178.2  3523
1178  3578
1177.8  3521
1177.6  3536
1177.4  3555
1177.2  3565.25
1177  3574.25
1176.8  3509.75
1176.6  3562.75
1176.4  3539
1176.2  3542.25
1176  3555.5
1175.8  3592.5
1175.6  3521.5
1175.4  3520.75
1175.2  3524.25
1175  3605
1174.8  3533
1174.6  3550.75
1174.4  3527.25
1174.2  3516.5
1174  3559.75
1173.8  3572.25
1173.6  3542.25
1173.4  3542
1173.2  3569.5
1173  3565
1172.8  3562.5
1172.6  3498.75
1172.4  3573.75
1172.2  3552.75
1172  3557
1171.8  3513.5
1171.6  3511.75
1171.4  3558.5
1171.2  3515.75
1171  3478.5
1170.8  3529.25
1170.6  3532.25
1170.4  3469.5
1170.2  3532.75
1170  3474
1169.8  3507.5
1169.6  3500.5
1169.4  3521.25
1169.2  3461.5
1169  3468.5
1168.8  3487.5
1168.6  3508.5
1168.4  3550.75
1168.2  3518.5
1168  3526.75
1167.8  3529.75
1167.6  3483.5
1167.4  3478.5
1167.2  3504.75
1167  3477.5
1166.8  3494.75
1166.6  3552
1166.4  3548.25
1166.2  3529
1166  3510.5
1165.8  3559
1165.6  3523.25
1165.4  3534.75
1165.2  3488.25
1165  3509.5
1164.8  3490
1164.6  3521.25
1164.4  3528
1164.2  3446.25
1164  3543.75
1163.8  3505
1163.6  3495.25
1163.4  3485.25
1163.2  3511.75
1163  3485.25
1162.8  3524.5
1162.6  3521.5
1162.4  3514.75
1162.2  3542.25
1162  3536.5
1161.8  3496.75
1161.6  3480
1161.4  3531.75
1161.2  3518.25
1161  3434.75
1160.8  3502
1160.6  3521.25
1160.4  3519.75
1160.2  3450
1160  3511.5
1159.8  3514.25
1159.6  3475.75
1159.4  3430.75
1159.2  3480.75
1159  3457.5
1158.8  3474
1158.6  3476.25
1158.4  3470.25
1158.2  3475.75
1158  3453.75
1157.8  3440.5
1157.6  3507.75
1157.4  3429
1157.2  3479
1157  3483
1156.8  3482.75
1156.6  3495
1156.4  3515
1156.2  3506.75
1156  3477
1155.8  3473.75
1155.6  3456.75
1155.4  3470.5
1155.2  3531
1155  3482.5
1154.8  3437.5
1154.6  3451.75
1154.4  3439
1154.2  3431.75
1154  3495.5
1153.8  3452.75
1153.6  3481.75
1153.4  3408.75
1153.2  3468.5
1153  3453.5
1152.8  3479
1152.6  3471.75
1152.4  3435.5
1152.2  3423
1152  3477.75
1151.8  3489.75
1151.6  3472.5
1151.4  3435.75
1151.2  3477.75
1151  3394.5
1150.8  3465.75
1150.6  3446.25
1150.4  3482.5
1150.2  3449.25
1150  3478.25
1149.8  3428.25
1149.6  3452.5
1149.4  3434.5
1149.2  3471.75
1149  3463.5
1148.8  3491.25
1148.6  3476.75
1148.4  3462
1148.2  3407.25
1148  3432.25
1147.8  3435
1147.6  3449
1147.4  3455.25
1147.2  3498.5
1147  3491.75
1146.8  3447
1146.6  3473.25
1146.4  3455.25
1146.2  3458.75
1146  3368
1145.8  3461
1145.6  3462.75
1145.4  3463.75
1145.2  3484
1145  3435
1144.8  3469.5
1144.6  3457
1144.4  3495.25
1144.2  3478.5
1144  3429
1143.8  3427.75
1143.6  3373.75
1143.4  3435.75
1143.2  3438.75
1143  3471.25
1142.8  3416.75
1142.6  3451.5
1142.4  3451.75
1142.2  3385
1142  3470.25
1141.8  3434.5
1141.6  3439.5
1141.4  3434
1141.2  3410.5
1141  3416.75
1140.8  3438.75
1140.6  3462
1140.4  3462.25
1140.2  3459
1140  3457
1139.8  3440.25
1139.6  3437
1139.4  3469.75
1139.2  3455.5
1139  3432
1138.8  3439.5
1138.6  3458.75
1138.4  3430.75
1138.2  3435
1138  3431.5
1137.8  3398.5
1137.6  3449
1137.4  3406.5
1137.2  3419.25
1137  3437.75
1136.8  3454.5
1136.6  3478
1136.4  3440.5
1136.2  3416.25
1136  3425.75
1135.8  3455.75
1135.6  3381.25
1135.4  3474
1135.2  3417.75
1135  3352.75
1134.8  3489.5
1134.6  3417
1134.4  3436.5
1134.2  3420.75
1134  3437.25
1133.8  3414.25
1133.6  3400
1133.4  3450
1133.2  3480.75
1133  3383
1132.8  3366.25
1132.6  3413
1132.4  3393
1132.2  3454.5
1132  3355
1131.8  3381.25
1131.6  3412.75
1131.4  3389.5
1131.2  3456.25
1131  3380
1130.8  3387
1130.6  3415.75
1130.4  3414.25
1130.2  3407.75
1130  3377.25
1129.8  3384
1129.6  3415.5
1129.4  3335.5
1129.2  3406
1129  3425.75
1128.8  3395
1128.6  3381.25
1128.4  3371.25
1128.2  3426.25
1128  3422
1127.8  3402
1127.6  3425.5
1127.4  3398.5
1127.2  3419.25
1127  3413
1126.8  3392.25
1126.6  3456.75
1126.4  3405.25
1126.2  3394.75
1126  3391
1125.8  3369.5
1125.6  3357.5
1125.4  3409.25
1125.2  3402.25
1125  3370.75
1124.8  3402.25
1124.6  3367
1124.4  3341.5
1124.2  3359.25
1124  3427
1123.8  3428.75
1123.6  3334.5
1123.4  3358.75
1123.2  3424.25
1123  3383
1122.8  3425
1122.6  3386.75
1122.4  3437
1122.2  3417.5
1122  3372
1121.8  3356.5
1121.6  3410.5
1121.4  3371.75
1121.2  3376.5
1121  3400.5
1120.8  3452.5
1120.6  3388.5
1120.4  3342.75
1120.2  3383.75
1120  3387.75
1119.8  3419.5
1119.6  3373.75
1119.4  3404
1119.2  3363
1119  3412
1118.8  3400.25
1118.6  3411.25
1118.4  3396.5
1118.2  3375.25
1118  3400.25
1117.8  3350.75
1117.6  3403
1117.4  3432.25
1117.2  3369.75
1117  3436.75
1116.8  3396
1116.6  3380.75
1116.4  3403.75
1116.2  3412.5
1116  3399.5
1115.8  3378.75
1115.6  3402.5
1115.4  3418.25
1115.2  3366.25
1115  3375.5
1114.8  3368.5
1114.6  3340
1114.4  3376.5
1114.2  3376.25
1114  3389.5
1113.8  3398
1113.6  3445.75
1113.4  3393
1113.2  3415.5
1113  3442.25
1112.8  3444.25
1112.6  3395.75
1112.4  3405.5
1112.2  3373
1112  3378.25
1111.8  3407.5
1111.6  3403.5
1111.4  3391
1111.2  3401.5
1111  3411.25
1110.8  3344
1110.6  3341.25
1110.4  3432
1110.2  3393.25
1110  3403.5
1109.8  3384.75
1109.6  3400.75
1109.4  3358
1109.2  3383
1109  3401.25
1108.8  3403.75
1108.6  3354
1108.4  3402
1108.2  3363.75
1108  3362.75
1107.8  3334.5
1107.6  3355.5
1107.4  3366.25
1107.2  3403.5
1107  3338.75
1106.8  3370.25
1106.6  3353.25
1106.4  3358.75
1106.2  3359.75
1106  3349.25
1105.8  3341.5
1105.6  3348.5
1105.4  3382.25
1105.2  3325.5
1105  3330.75
1104.8  3343.5
1104.6  3299.25
1104.4  3342.5
1104.2  3337.25
1104  3315.5
1103.8  3317
1103.6  3348.75
1103.4  3341.5
1103.2  3371.75
1103  3354
1102.8  3393
1102.6  3377.25
1102.4  3354.25
1102.2  3349.25
1102  3387.25
1101.8  3398.75
1101.6  3352.25
1101.4  3389
1101.2  3351.5
1101  3315.25
1100.8  3358.25
1100.6  3406.25
1100.4  3402.25
1100.2  3407.25
1100  3346.25
1099.8  3337.75
1099.6  3331
1099.4  3359
1099.2  3339
1099  3336
1098.8  3378.5
1098.6  3305.5
1098.4  3327
1098.2  3345
1098  3351.25
1097.8  3342.75
1097.6  3331
1097.4  3321
1097.2  3346
1097  3325.75
1096.8  3381
1096.6  3283.75
1096.4  3350.5
1096.2  3341.5
1096  3352.75
1095.8  3341
1095.6  3357.75
1095.4  3342
1095.2  3336.25
1095  3292.5
1094.8  3304.25
1094.6  3274.75
1094.4  3306.5
1094.2  3302.75
1094  3295.75
1093.8  3286
1093.6  3302.25
1093.4  3303
1093.2  3256
1093  3320.75
1092.8  3300.5
1092.6  3363.25
1092.4  3345
1092.2  3341
1092  3299.25
1091.8  3365
1091.6  3336.75
1091.4  3359.75
1091.2  3353.75
1091  3278
1090.8  3322.5
1090.6  3338.25
1090.4  3340.75
1090.2  3353.75
1090  3370
1089.8  3296.25
1089.6  3281.25
1089.4  3310.75
1089.2  3318
1089  3279.25
1088.8  3301.75
1088.6  3333.5
1088.4  3320.75
1088.2  3355.25
1088  3363.75
1087.8  3351.75
1087.6  3339.75
1087.4  3346.25
1087.2  3361.75
1087  3313.75
1086.8  3286
1086.6  3344.25
1086.4  3309.25
1086.2  3319
1086  3286.75
1085.8  3284.75
1085.6  3300.25
1085.4  3329
1085.2  3315.25
1085  3333.75
1084.8  3313.25
1084.6  3329.5
1084.4  3288.5
1084.2  3313.25
1084  3413
1083.8  3352.25
1083.6  3295.75
1083.4  3275
1083.2  3304.5
1083  3323.25
1082.8  3370
1082.6  3332.5
1082.4  3313.25
1082.2  3344.25
1082  3350.5
1081.8  3245.5
1081.6  3291.75
1081.4  3314.25
1081.2  3360.25
1081  3310
1080.8  3282.5
1080.6  3268
1080.4  3286.5
1080.2  3324.75
1080  3350.25
1079.8  3338.25
1079.6  3309.5
1079.4  3323
1079.2  3323.5
1079  3327
1078.8  3342
1078.6  3330
1078.4  3307.25
1078.2  3290.25
1078  3317.5
1077.8  3319.75
1077.6  3314.5
1077.4  3312
1077.2  3312.25
1077  3342
1076.8  3343
1076.6  3309
1076.4  3368.75
1076.2  3384.5
1076  3347.5
1075.8  3345
1075.6  3356
1075.4  3384
1075.2  3392.75
1075  3357
1074.8  3396.75
1074.6  3343.5
1074.4  3309.5
1074.2  3365
1074  3374.75
1073.8  3379.5
1073.6  3346
1073.4  3335.5
1073.2  3346
1073  3299.75
1072.8  3329.25
1072.6  3315.5
1072.4  3376.25
1072.2  3304
1072  3310.5
1071.8  3313.25
1071.6  3363.75
1071.4  3326.5
1071.2  3336.25
1071  3330.5
1070.8  3359
1070.6  3372.75
1070.4  3330.25
1070.2  3327.25
1070  3331.25
1069.8  3298.25
1069.6  3359.25
1069.4  3299
1069.2  3363
1069  3283.75
1068.8  3293.25
1068.6  3320.25
1068.4  3312.75
1068.2  3365.25
1068  3346.5
1067.8  3333.5
1067.6  3381.25
1067.4  3318
1067.2  3279
1067  3334.25
1066.8  3315.5
1066.6  3308.75
1066.4  3315.5
1066.2  3338
1066  3348.25
1065.8  3304.25
1065.6  3315.25
1065.4  3316.5
1065.2  3332.75
1065  3348.75
1064.8  3335.25
1064.6  3341.5
1064.4  3295
1064.2  3333.25
1064  3320.25
1063.8  3319
1063.6  3312.25
1063.4  3324
1063.2  3295.5
1063  3284.5
1062.8  3365.25
1062.6  3324.25
1062.4  3302.25
1062.2  3343.5
1062  3298.5
1061.8  3346.5
1061.6  3354
1061.4  3300.75
1061.2  3294.25
1061  3309.5
1060.8  3330.5
1060.6  3379
1060.4  3254
1060.2  3292.75
1060  3285.75
1059.8  3308.5
1059.6  3247.5
1059.4  3280.5
1059.2  3331.25
1059  3318.5
1058.8  3305
1058.6  3310
1058.4  3295.5
1058.2  3309.75
1058  3255.25
1057.8  3309.75
1057.6  3290.75
1057.4  3285.75
1057.2  3310.75
1057  3304.25
1056.8  3347.75
1056.6  3286.25
1056.4  3295.5
1056.2  3283
1056  3321
1055.8  3318.75
1055.6  3287
1055.4  3316.75
1055.2  3296.5
1055  3285.5
1054.8  3304.5
1054.6  3311.5
1054.4  3328.25
1054.2  3314.75
1054  3308.25
1053.8  3329.25
1053.6  3296
1053.4  3256
1053.2  3330.5
1053  3285.25
1052.8  3285.75
1052.6  3318.5
1052.4  3257.75
1052.2  3314
1052  3314.25
1051.8  3332.5
1051.6  3257.5
1051.4  3303.25
1051.2  3336.75
1051  3332.25
1050.8  3325.75
1050.6  3322.25
1050.4  3315.25
1050.2  3292.75
1050  3313.25
1049.8  3342.75
1049.6  3310.5
1049.4  3276.75
1049.2  3294.75
1049  3286.75
1048.8  3342
1048.6  3276.5
1048.4  3286.25
1048.2  3306.5
1048  3323.25
1047.8  3346.75
1047.6  3352
1047.4  3288.75
1047.2  3331.5
1047  3337.25
1046.8  3342.75
1046.6  3289.5
1046.4  3338.5
1046.2  3334
1046  3333
1045.8  3308.5
1045.6  3277.5
1045.4  3298.25
1045.2  3353.25
1045  3252.25
1044.8  3312.25
1044.6  3305
1044.4  3300.25
1044.2  3336.5
1044  3265
1043.8  3306
1043.6  3318.5
1043.4  3304.5
1043.2  3346.25
1043  3347.75
1042.8  3348.75
1042.6  3321.25
1042.4  3285.75
1042.2  3294.75
1042  3298
1041.8  3287.75
1041.6  3319.5
1041.4  3294.75
1041.2  3336
1041  3315.75
1040.8  3297.5
1040.6  3366.75
1040.4  3297.75
1040.2  3312.25
1040  3218.5
1039.8  3330
1039.6  3300.5
1039.4  3316.5
1039.2  3259
1039  3256
1038.8  3336
1038.6  3302.5
1038.4  3333.75
1038.2  3327.5
1038  3321
1037.8  3316.75
1037.6  3286.5
1037.4  3251.75
1037.2  3351
1037  3311.5
1036.8  3310.5
1036.6  3325.5
1036.4  3331.75
1036.2  3316
1036  3269
1035.8  3385.75
1035.6  3300.5
1035.4  3297.25
1035.2  3315.25
1035  3288
1034.8  3276.5
1034.6  3310.5
1034.4  3292
1034.2  3333
1034  3312.75
1033.8  3286.75
1033.6  3244.75
1033.4  3321.5
1033.2  3319
1033  3286.25
1032.8  3315.75
1032.6  3333.75
1032.4  3371.5
1032.2  3305.75
1032  3262.25
1031.8  3287
1031.6  3307.5
1031.4  3291.5
1031.2  3326.5
1031  3344.25
1030.8  3327.25
1030.6  3313
1030.4  3315.75
1030.2  3375.75
1030  3321.5
1029.8  3307.75
1029.6  3304.25
1029.4  3346.5
1029.2  3323.25
1029  3313.5
1028.8  3302.25
1028.6  3369.75
1028.4  3365.5
1028.2  3359
1028  3310.5
1027.8  3339.5
1027.6  3315
1027.4  3353.75
1027.2  3370
1027  3423.5
1026.8  3339.25
1026.6  3342.75
1026.4  3335.75
1026.2  3312.75
1026  3368
1025.8  3327.75
1025.6  3292.75
1025.4  3295.75
1025.2  3344.5
1025  3367
1024.8  3375
1024.6  3401.25
1024.4  3388.25
1024.2  3364.25
1024  3400.75
1023.8  3349.75
1023.6  3320
1023.4  3374
1023.2  3365.75
1023  3366
1022.8  3325.25
1022.6  3358.5
1022.4  3419.5
1022.2  3417.75
1022  3382
1021.8  3415.5
1021.6  3324.5
1021.4  3382
1021.2  3444
1021  3385.75
1020.8  3375.25
1020.6  3388
1020.4  3384.25
1020.2  3390.5
1020  3427.25
1019.8  3424
1019.6  3405
1019.4  3393.75
1019.2  3420.75
1019  3400.25
1018.8  3418.25
1018.6  3378.5
1018.4  3433.5
1018.2  3347.5
1018  3379.25
1017.8  3348
1017.6  3350
1017.4  3379.75
1017.2  3329
1017  3347.5
1016.8  3282
1016.6  3285.25
1016.4  3307.5
1016.2  3314.5
1016  3286.5
1015.8  3301
1015.6  3342.75
1015.4  3249
1015.2  3248.75
1015  3326.75
1014.8  3296
1014.6  3287.75
1014.4  3287.5
1014.2  3292.25
1014  3273.25
1013.8  3305.75
1013.6  3359
1013.4  3285.75
1013.2  3258.25
1013  3329.75
1012.8  3284.25
1012.6  3314.5
1012.4  3280
1012.2  3313.5
1012  3259
1011.8  3325
1011.6  3295.5
1011.4  3359.5
1011.2  3299
1011  3347
1010.8  3330.75
1010.6  3375
1010.4  3333
1010.2  3385
1010  3382
1009.8  3323.75
1009.6  3421.25
1009.4  3368.75
1009.2  3400.5
1009  3413.75
1008.8  3448
1008.6  3439
1008.4  3448
1008.2  3420
1008  3435.25
1007.8  3419
1007.6  3452.25
1007.4  3430.25
1007.2  3407.25
1007  3406.5
1006.8  3443.25
1006.6  3464
1006.4  3462.75
1006.2  3459
1006  3488.25
1005.8  3556
1005.6  3489.25
1005.4  3524.25
1005.2  3555
1005  3595.25
1004.8  3617.75
1004.6  3572.5
1004.4  3599.75
1004.2  3527.25
1004  3603.75
1003.8  3554
1003.6  3592
1003.4  3655.25
1003.2  3543.25
1003  3565
1002.8  3528
1002.6  3548.5
1002.4  3513.75
1002.2  3464
1002  3448
1001.8  3461.25
1001.6  3441.25
1001.4  3408.75
1001.2  3399.25
1001  3380.75
1000.8  3368.75
1000.6  3382.75
1000.4  3317.25
1000.2  3372
1000  3240
999.8  3264.5
999.6  3274.75
999.4  3253
999.2  3234.25
999  3265.25
998.8  3245.75
998.6  3210.5
998.4  3198
998.2  3175
998  3194
997.8  3294.25
997.6  3209.25
997.4  3179.75
997.2  3243.25
997  3199.5
996.8  3173
996.6  3159.5
996.4  3146
996.2  3156.75
996  3101.25
995.8  3105
995.6  3108.5
995.4  3065.25
995.2  3092.75
995  3054.75
994.8  3062
994.6  3021.75
994.4  3013.5
994.2  3056.5
994  3034.75
993.8  3055.25
993.6  3064.75
993.4  3005.75
993.2  3006.25
993  3019
992.8  3031.75
992.6  3041
992.4  3013.75
992.2  3027.5
992  3017.5
991.8  3081.25
991.6  3130.75
991.4  3023.5
991.2  3067.75
991  3049.75
990.8  3064.5
990.6  3172.75
990.4  3073.25
990.2  3065.25
990  3032.75
989.8  3034.25
989.6  3081.75
989.4  3061
989.2  3045
989  3076.75
988.8  3051.25
988.6  3103
988.4  3087.75
988.2  3102
988  3145
987.8  3173.25
987.6  3188.75
987.4  3288.25
987.2  3272.5
987  3346.75
986.8  3400
986.6  3447.25
986.4  3400.25
986.2  3430.5
986  3530.5
985.8  3449.25
985.6  3571.25
985.4  3594.75
985.2  3580
985  3609.5
984.8  3674
984.6  3650.25
984.4  3755.5
984.2  3737.5
984  3845.5
983.8  3878.75
983.6  3957
983.4  3910.5
983.2  4001
983  3978.75
982.8  3983
982.6  4064.75
982.4  4114.5
982.2  4097
982  4015.5
981.8  4005
981.6  3932
981.4  3887.75
981.2  3849.5
981  3758.75
980.8  3713.75
980.6  3675.75
980.4  3589.75
980.2  3566.75
980  3484.25
979.8  3412.25
979.6  3395.5
979.4  3344.5
979.2  3297.75
979  3285.5
978.8  3244
978.6  3205.5
978.4  3184.25
978.2  3113.25
978  3110.75
977.8  3067
977.6  3082
977.4  3024.25
977.2  2962.75
977  2956.5
976.8  2943.75
976.6  2959.5
976.4  2870.25
976.2  2959.5
976  2874.75
975.8  2830.75
975.6  2835
975.4  2810.25
975.2  2744.75
975  2733
974.8  2736.25
974.6  2720
974.4  2691
974.2  2677.75
974  2661.5
973.8  2638
973.6  2612.25
973.4  2600.5
973.2  2586.75
973  2553.5
972.8  2517.75
972.6  2503.75
972.4  2503
972.2  2462.25
972  2413.25
971.8  2447
971.6  2402.5
971.4  2400.75
971.2  2384.75
971  2380.5
970.8  2367.25
970.6  2327.5
970.4  2341.25
970.2  2254
970  2318
969.8  2266.5
969.6  2255
969.4  2268.25
969.2  2241.25
969  2264.75
968.8  2253.5
968.6  2232.5
968.4  2214.5
968.2  2242
968  2220.25
967.8  2241.25
967.6  2191.25
967.4  2204.25
967.2  2200.25
967  2174.5
966.8  2206.25
966.6  2195.75
966.4  2159.75
966.2  2160.5
966  2196.25
965.8  2191.25
965.6  2159.5
965.4  2187.5
965.2  2172.5
965  2192.75
964.8  2160
964.6  2186.25
964.4  2178.75
964.2  2151.5
964  2170.75
963.8  2175.5
963.6  2162.25
963.4  2187.25
963.2  2185.75
963  2187
962.8  2203.25
962.6  2178
962.4  2152.75
962.2  2152.75
962  2174.5
961.8  2158.75
961.6  2165.25
961.4  2200.25
961.2  2159.5
961  2191.5
960.8  2162.5
960.6  2181.5
960.4  2160.25
960.2  2102.75
960  2181
959.8  2122.25
959.6  2148
959.4  2128.75
959.2  2161.75
959  2172
958.8  2163.25
958.6  2200.75
958.4  2135
958.2  2182.5
958  2130.25
957.8  2139
957.6  2156.5
957.4  2156.75
957.2  2149
957  2147
956.8  2141
956.6  2181.25
956.4  2219.75
956.2  2162
956  2163.25
955.8  2141.5
955.6  2090
955.4  2145.5
955.2  2166.5
955  2147.25
954.8  2133.75
954.6  2186.25
954.4  2129.75
954.2  2170.25
954  2171
953.8  2151.25
953.6  2141.75
953.4  2100.5
953.2  2128
953  2113
952.8  2138.5
952.6  2117.5
952.4  2152
952.2  2141.75
952  2101.75
951.8  2082
951.6  2107.5
951.4  2110
951.2  2140.5
951  2161.75
950.8  2114
950.6  2130
950.4  2077.75
950.2  2098.25
950  2109
949.8  2110.5
949.6  2117.5
949.4  2141
949.2  2093.5
949  2124
948.8  2134.5
948.6  2139.5
948.4  2113.25
948.2  2135.5
948  2073.25
947.8  2119.75
947.6  2129.5
947.4  2148
947.2  2090
947  2136.25
946.8  2125.25
946.6  2122.25
946.4  2123
946.2  2062.75
946  2079.75
945.8  2097.5
945.6  2118.5
945.4  2087.75
945.2  2083
945  2116.25
944.8  2105.5
944.6  2080.75
944.4  2111.75
944.2  2112.75
944  2078.75
943.8  2084.75
943.6  2086.75
943.4  2095.25
943.2  2080.5
943  2162
942.8  2121.75
942.6  2062
942.4  2080.25
942.2  2046.5
942  2100.25
941.8  2064.25
941.6  2097.25
941.4  2119.5
941.2  2100.5
941  2087.25
940.8  2077
940.6  2079
940.4  2078.75
940.2  2082
940  2082.75
939.8  2030.5
939.6  2082.25
939.4  2067.25
939.2  2079.25
939  2113.75
938.8  2089.5
938.6  2087.75
938.4  2115
938.2  2085.75
938  2111.25
937.8  2110.5
937.6  2091.75
937.4  2091.5
937.2  2131.5
937  2092.25
936.8  2128.25
936.6  2125.5
936.4  2076.5
936.2  2142.25
936  2120
935.8  2114.5
935.6  2137.75
935.4  2079.25
935.2  2083.5
935  2107.75
934.8  2127
934.6  2103.5
934.4  2077
934.2  2105
934  2062.75
933.8  2092
933.6  2071
933.4  2097.5
933.2  2097.5
933  2103.5
932.8  2059.25
932.6  2072.25
932.4  2085.75
932.2  2097.75
932  2071
931.8  2069
931.6  2069
931.4  2074.75
931.2  2106
931  2055.75
930.8  2048.5
930.6  2051.5
930.4  2056
930.2  2064.5
930  2107.75
929.8  2067.25
929.6  2049.25
929.4  2068.75
929.2  2022.75
929  2064.75
928.8  2079.75
928.6  2035.25
928.4  2029.25
928.2  2071.25
928  2043.25
927.8  2055
927.6  2029
927.4  2072.25
927.2  2076.5
927  2044.25
926.8  2027.25
926.6  2036.25
926.4  2038.5
926.2  2061.75
926  2089.5
925.8  2052.5
925.6  2063.25
925.4  2037.5
925.2  1998
925  2016.75
924.8  2071.25
924.6  2029.75
924.4  2020.25
924.2  2060.5
924  2003.25
923.8  2036.25
923.6  2041.25
923.4  2036.75
923.2  2074
923  2031.25
922.8  2060
922.6  2027.5
922.4  2005.75
922.2  2032
922  2055.5
921.8  2046.25
921.6  2055.25
921.4  2044.75
921.2  2161.5
921  2014.75
920.8  2058.25
920.6  2041.75
920.4  2027.5
920.2  2020.5
920  2043.25
919.8  2035.25
919.6  1980.25
919.4  2071.75
919.2  2007.5
919  2013.25
918.8  2053.25
918.6  2058.75
918.4  2055.25
918.2  2047.25
918  2012
917.8  2055.5
917.6  2023.75
917.4  2021.75
917.2  1989
917  1999.5
916.8  2003.5
916.6  1993.75
916.4  2007.75
916.2  1994.5
916  2022.5
915.8  2013
915.6  1978.25
915.4  2038.25
915.2  2039.75
915  2033.25
914.8  2030
914.6  2026.5
914.4  2015.5
914.2  2013.75
914  1992
913.8  1987.5
913.6  1979.5
913.4  2013.75
913.2  2000.75
913  2030
912.8  2013
912.6  1973.5
912.4  1994.5
912.2  2034.75
912  2016
911.8  2049
911.6  2005.75
911.4  2007
911.2  1990.75
911  2014
910.8  1990.25
910.6  2028.5
910.4  2046.75
910.2  2026.5
910  1983.5
909.8  2022.25
909.6  1984.25
909.4  1980
909.2  1993.25
909  2026
908.8  1995.25
908.6  2052.75
908.4  2014.75
908.2  1987.75
908  1993.25
907.8  2010.75
907.6  2029.25
907.4  2001
907.2  2030.5
907  2018.5
906.8  1972.75
906.6  2011
906.4  1993.75
906.2  2032
906  1978.25
905.8  1988.75
905.6  2015.25
905.4  1967.5
905.2  2004.75
905  1983
904.8  1988
904.6  1987.25
904.4  1960
904.2  1998
904  1984.5
903.8  2009
903.6  1965.25
903.4  2015
903.2  1975
903  2014.25
902.8  1998
902.6  1964
902.4  1970
902.2  1997.25
902  1975
901.8  2004.5
901.6  1976.75
901.4  2012
901.2  1972.25
901  1979.5
900.8  1992.5
900.6  2002.75
900.4  2013.5
900.2  1987.5
900  1953.75
899.8  1969.75
899.6  1909.25
899.4  1947.5
899.2  2004
899  1960
898.8  1963
898.6  1964
898.4  1962.5
898.2  2000.25
898  1991
897.8  1989.25
897.6  1969.25
897.4  1955.25
897.2  1957.25
897  1955.75
896.8  1976
896.6  1936.5
896.4  1980.25
896.2  1948.25
896  1949.75
895.8  1969.5
895.6  1962
895.4  1927.75
895.2  1964.75
895  1947.75
894.8  1930.75
894.6  1939
894.4  1940.5
894.2  1971.5
894  1951
893.8  1948.75
893.6  1973.5
893.4  1975.5
893.2  1936.25
893  1949.25
892.8  1956
892.6  1955
892.4  1947.5
892.2  1946.25
892  1940.5
891.8  1972.25
891.6  1963.25
891.4  1940.5
891.2  1977.25
891  1971.75
890.8  1981.75
890.6  1952.5
890.4  1956.25
890.2  1973.25
890  1992.25
889.8  1962.75
889.6  1945
889.4  1985.25
889.2  1939
889  1966.5
888.8  1939.25
888.6  1983.75
888.4  1925.75
888.2  1966.25
888  1930.5
887.8  1950.75
887.6  1917.25
887.4  2005.25
887.2  1936
887  1916
886.8  1944.5
886.6  1973.75
886.4  1952.5
886.2  1941.75
886  1978
885.8  1923.25
885.6  1971
885.4  1951.5
885.2  1917
885  1941
884.8  1934
884.6  1931.75
884.4  1950.25
884.2  1917
884  1913.5
883.8  1913.75
883.6  1883
883.4  1908
883.2  1953.75
883  1917.5
882.8  1940.75
882.6  1898.75
882.4  1924.5
882.2  1924.25
882  1950.75
881.8  1912.75
881.6  1887.75
881.4  1883.25
881.2  1914
881  1907.5
880.8  1893.75
880.6  1914.5
880.4  1914.75
880.2  1879.5
880  1887.25
879.8  1882.5
879.6  1877
879.4  1947.25
879.2  1886.5
879  1910.5
878.8  1874.5
878.6  1871.25
878.4  1906.5
878.2  1894
878  1927.75
877.8  1887.5
877.6  1909
877.4  1913.75
877.2  1896.75
877  1878.25
876.8  1898
876.6  1948.5
876.4  1870.25
876.2  1888.75
876  1888.25
875.8  1894.5
875.6  1900.75
875.4  1897
875.2  1893
875  1867.5
874.8  1889.75
874.6  1906
874.4  1933.5
874.2  1883.5
874  1915.75
873.8  1857.75
873.6  1889.75
873.4  1883.5
873.2  1879.75
873  1973.75
872.8  1904.25
872.6  1889.5
872.4  1854.5
872.2  1897.5
872  1893.75
871.8  1868.25
871.6  1889.5
871.4  1859
871.2  1879.25
871  1854
870.8  1892.25
870.6  1874.25
870.4  1871.75
870.2  1901.25
870  1874.5
869.8  1833.75
869.6  1914
869.4  1862.75
869.2  1878.75
869  1889
868.8  1883
868.6  1847.5
868.4  1888.5
868.2  1829.5
868  1888.75
867.8  1902
867.6  1908.5
867.4  1884.25
867.2  1875.25
867  1875
866.8  1881.75
866.6  1874
866.4  1837.25
866.2  1856.75
866  1839
865.8  1851.25
865.6  1857
865.4  1858.5
865.2  1864.25
865  1860.25
864.8  1870
864.6  1833.75
864.4  1882.25
864.2  1867.5
864  1884.75
863.8  1860.5
863.6  1871.75
863.4  1851.75
863.2  1856.25
863  1874
862.8  1875.25
862.6  1875.75
862.4  1885.5
862.2  1813.25
862  1861.5
861.8  1864.75
861.6  1843
861.4  1846.75
861.2  1885.5
861  1901.5
860.8  1847.75
860.6  1889
860.4  1803.25
860.2  1798.5
860  1838.5
859.8  1904.25
859.6  1851.5
859.4  1881.25
859.2  1853.5
859  1849.75
858.8  1843.75
858.6  1838.25
858.4  1856.5
858.2  1839
858  1884.5
857.8  1830.25
857.6  1847
857.4  1850.75
857.2  1820.5
857  1813.75
856.8  1858.25
856.6  1864.75
856.4  1852.25
856.2  1842.25
856  1856.75
855.8  1820.25
855.6  1823.5
855.4  1865.25
855.2  1820
855  1828
854.8  1828.75
854.6  1806
854.4  1836.5
854.2  1875.75
854  1838.5
853.8  1813
853.6  1843.25
853.4  1840.5
853.2  1861.25
853  1857.75
852.8  1881.75
852.6  1818
852.4  1821.25
852.2  1827.5
852  1829
851.8  1827.75
851.6  1861.5
851.4  1824.25
851.2  1856.75
851  1846.75
850.8  1796.75
850.6  1863.5
850.4  1833.75
850.2  1838.25
850  1829.75
849.8  1865.25
849.6  1848.75
849.4  1852.75
849.2  1909.75
849  1816.5
848.8  1830.5
848.6  1867.75
848.4  1832.75
848.2  1818.75
848  1813.25
847.8  1832.25
847.6  1840
847.4  1842
847.2  1818.5
847  1834.5
846.8  1824.5
846.6  1827.5
846.4  1835.25
846.2  1850.75
846  1890.25
845.8  1823.5
845.6  1843.25
845.4  1829.25
845.2  1845
845  1822
844.8  1842.25
844.6  1805.5
844.4  1837.25
844.2  1790.75
844  1829.25
843.8  1820.75
843.6  1828.25
843.4  1855.25
843.2  1789.5
843  1861.25
842.8  1848.75
842.6  1827.5
842.4  1807
842.2  1810
842  1770
841.8  1800
841.6  1856.5
841.4  1806.5
841.2  1839.5
841  1853.75
840.8  1833
840.6  1796.5
840.4  1796.25
840.2  1859
840  1819.5
839.8  1810
839.6  1813.25
839.4  1799.25
839.2  1820.75
839  1817.25
838.8  1803
838.6  1798.25
838.4  1816
838.2  1851.75
838  1806
837.8  1764.75
837.6  1815.25
837.4  1770.25
837.2  1818
837  1821
836.8  1836.25
836.6  1849.5
836.4  1805.5
836.2  1829.75
836  1810.5
835.8  1815.75
835.6  1821.75
835.4  1809
835.2  1787
835  1800
834.8  1812.75
834.6  1818.25
834.4  1784
834.2  1822.75
834  1787.25
833.8  1823.5
833.6  1819
833.4  1836.75
833.2  1837.75
833  1762.5
832.8  1806.25
832.6  1788.25
832.4  1806
832.2  1795.25
832  1826.5
831.8  1785.25
831.6  1780
831.4  1796.75
831.2  1810.25
831  1817.75
830.8  1806.25
830.6  1796.25
830.4  1774.5
830.2  1822.25
830  1787.75
829.8  1793.5
829.6  1738
829.4  1752.25
829.2  1775.75
829  1784.5
828.8  1780
828.6  1783.5
828.4  1806.75
828.2  1784.5
828  1809.75
827.8  1789.25
827.6  1794.25
827.4  1799.25
827.2  1796.75
827  1779.5
826.8  1797.75
826.6  1772
826.4  1781
826.2  1783.75
826  1775
825.8  1763.75
825.6  1802.75
825.4  1759.25
825.2  1743.75
825  1756.5
824.8  1784.75
824.6  1721
824.4  1788
824.2  1758.5
824  1729
823.8  1768
823.6  1789.75
823.4  1781
823.2  1774.5
823  1774.75
822.8  1768.75
822.6  1771.25
822.4  1761.25
822.2  1759
822  1758.25
821.8  1750
821.6  1740.25
821.4  1821
821.2  1780.75
821  1775.25
820.8  1786
820.6  1782
820.4  1786.25
820.2  1755.75
820  1781.5
819.8  1796.75
819.6  1773
819.4  1736
819.2  1720.25
819  1761.25
818.8  1743.75
818.6  1779.75
818.4  1765.25
818.2  1778.25
818  1764.75
817.8  1726.5
817.6  1754
817.4  1756.5
817.2  1776.75
817  1761
816.8  1771.75
816.6  1746
816.4  1751.75
816.2  1803
816  1740.25
815.8  1743.25
815.6  1705.75
815.4  1783.25
815.2  1731.5
815  1736.5
814.8  1768.5
814.6  1773
814.4  1738.5
814.2  1752.5
814  1742.75
813.8  1721.5
813.6  1767.75
813.4  1760.25
813.2  1786.75
813  1726.25
812.8  1715
812.6  1778
812.4  1767.5
812.2  1753.75
812  1732
811.8  1739
811.6  1747
811.4  1765.5
811.2  1755.75
811  1709.5
810.8  1743
810.6  1726.25
810.4  1733
810.2  1727
810  1718.5
809.8  1744.25
809.6  1733.25
809.4  1739
809.2  1742.25
809  1734.25
808.8  1770
808.6  1744
808.4  1745.25
808.2  1755.75
808  1739.5
807.8  1704.5
807.6  1739.75
807.4  1752.25
807.2  1758.5
807  1705
806.8  1693.75
806.6  1749.75
806.4  1759.25
806.2  1721.75
806  1709
805.8  1744
805.6  1733
805.4  1770.25
805.2  1725.25
805  1731
804.8  1713.75
804.6  1753.5
804.4  1710.25
804.2  1754
804  1698.25
803.8  1748.25
803.6  1705.25
803.4  1724.5
803.2  1682.25
803  1694.5
802.8  1777.75
802.6  1717.25
802.4  1704
802.2  1727.5
802  1731.5
801.8  1696.25
801.6  1757.5
801.4  1762
801.2  1783.5
801  1722
800.8  1732.75
800.6  1743.75
800.4  1697.5
800.2  1757.75
800  1745.5
799.8  1738.25
799.6  1721.75
799.4  1733.75
799.2  1727
799  1725.5
798.8  1724.25
798.6  1769.75
798.4  1724
798.2  1739.5
798  1730.75
797.8  1741
797.6  1712.5
797.4  1695.5
797.2  1720.25
797  1746.25
796.8  1730.75
796.6  1737.75
796.4  1754.5
796.2  1741.75
796  1721
795.8  1702.25
795.6  1738.25
795.4  1766.5
795.2  1675.75
795  1760
794.8  1695
794.6  1726.25
794.4  1698
794.2  1727.5
794  1711
793.8  1700.25
793.6  1712
793.4  1716.25
793.2  1725.25
793  1704.75
792.8  1715.5
792.6  1716
792.4  1706.25
792.2  1713.25
792  1712.75
791.8  1728
791.6  1746.5
791.4  1722.75
791.2  1732.75
791  1727.25
790.8  1722.25
790.6  1716.25
790.4  1717.75
790.2  1682
790  1668.75
789.8  1689.75
789.6  1699
789.4  1694.75
789.2  1681.5
789  1690.75
788.8  1711.5
788.6  1688.25
788.4  1689.5
788.2  1680.5
788  1698.75
787.8  1728.75
787.6  1698.25
787.4  1707
787.2  1709.5
787  1689
786.8  1692.75
786.6  1715
786.4  1709.5
786.2  1726.75
786  1702.75
785.8  1671.25
785.6  1686.25
785.4  1714.75
785.2  1734.25
785  1709.5
784.8  1656
784.6  1694.5
784.4  1733.75
784.2  1710.25
784  1719.5
783.8  1660
783.6  1694
783.4  1708
783.2  1708.25
783  1655.75
782.8  1724.5
782.6  1746
782.4  1733.5
782.2  1709.75
782  1756.5
781.8  1707.25
781.6  1734.25
781.4  1739.25
781.2  1745
781  1741
780.8  1727.75
780.6  1719.5
780.4  1692
780.2  1711
780  1736.5
779.8  1742
779.6  1721.75
779.4  1668.75
779.2  1717.25
779  1676
778.8  1680.75
778.6  1657.5
778.4  1708
778.2  1680.25
778  1701.25
777.8  1676.5
777.6  1711.25
777.4  1703
777.2  1656.25
777  1671.25
776.8  1691
776.6  1676.5
776.4  1678.25
776.2  1664.5
776  1657
775.8  1664
775.6  1636.25
775.4  1693
775.2  1675.25
775  1666.5
774.8  1708.75
774.6  1673
774.4  1638
774.2  1669.25
774  1684.75
773.8  1648
773.6  1656.25
773.4  1629
773.2  1663.5
773  1686
772.8  1656
772.6  1684.5
772.4  1674
772.2  1680.5
772  1638.25
771.8  1673.25
771.6  1691.25
771.4  1696.75
771.2  1682
771  1670.25
770.8  1745.25
770.6  1646
770.4  1714
770.2  1658.75
770  1662.75
769.8  1679.75
769.6  1711.75
769.4  1720.5
769.2  1685.5
769  1688.5
768.8  1705.25
768.6  1700.75
768.4  1717.75
768.2  1672.5
768  1655
767.8  1683.25
767.6  1677
767.4  1706.5
767.2  1674
767  1617
766.8  1639.25
766.6  1672
766.4  1677
766.2  1671.5
766  1655.25
765.8  1618.25
765.6  1641
765.4  1667.5
765.2  1693.25
765  1714.25
764.8  1647.75
764.6  1628.25
764.4  1646.75
764.2  1664
764  1680.25
763.8  1611.75
763.6  1685.75
763.4  1648.75
763.2  1673.5
763  1672
762.8  1618
762.6  1668.25
762.4  1600.5
762.2  1646
762  1661.75
761.8  1624
761.6  1668
761.4  1649.5
761.2  1655
761  1653.5
760.8  1670.75
760.6  1636.25
760.4  1647.75
760.2  1642
760  1640.25
759.8  1639
759.6  1679.25
759.4  1648.5
759.2  1648
759  1654.25
758.8  1661.25
758.6  1648.25
758.4  1640.75
758.2  1664.75
758  1631.5
757.8  1658.75
757.6  1672.75
757.4  1634.75
757.2  1623.5
757  1625.5
756.8  1624.75
756.6  1624.75
756.4  1620.75
756.2  1643.25
756  1645.75
755.8  1664.75
755.6  1618.5
755.4  1656.75
755.2  1597.5
755  1648.25
754.8  1680
754.6  1632.75
754.4  1638.25
754.2  1651
754  1630
753.8  1635.5
753.6  1623.25
753.4  1648.5
753.2  1651.5
753  1611.25
752.8  1635
752.6  1627
752.4  1636
752.2  1615.25
752  1636.75
751.8  1643.75
751.6  1649.75
751.4  1618.25
751.2  1634
751  1669
750.8  1640.5
750.6  1612
750.4  1638.25
750.2  1649.25
750  1626
749.8  1664.25
749.6  1631.5
749.4  1631.5
749.2  1685.75
749  1655
748.8  1642.75
748.6  1634
748.4  1584.25
748.2  1611
748  1634.75
747.8  1629.5
747.6  1669.25
747.4  1610.75
747.2  1625.25
747  1585
746.8  1604
746.6  1631.5
746.4  1611.5
746.2  1615.25
746  1555.75
745.8  1623
745.6  1621.5
745.4  1632
745.2  1630.25
745  1635.5
744.8  1626.75
744.6  1634.5
744.4  1626
744.2  1614
744  1624.75
743.8  1629.75
743.6  1618.25
743.4  1631.75
743.2  1664.75
743  1617.75
742.8  1614.25
742.6  1654.25
742.4  1610
742.2  1632
742  1625
741.8  1629.75
741.6  1618.5
741.4  1632
741.2  1597.5
741  1590.25
740.8  1641.75
740.6  1640.75
740.4  1602
740.2  1626.75
740  1627.25
739.8  1606.25
739.6  1635.25
739.4  1642
739.2  1604.25
739  1640
738.8  1614.75
738.6  1616.25
738.4  1645
738.2  1620.5
738  1604
737.8  1630.75
737.6  1606.25
737.4  1618.75
737.2  1588.75
737  1621.25
736.8  1636.25
736.6  1604.75
736.4  1616.5
736.2  1654.25
736  1644.25
735.8  1604.5
735.6  1604.75
735.4  1643
735.2  1649
735  1644.75
734.8  1594.75
734.6  1601.75
734.4  1613.5
734.2  1615.5
734  1620.5
733.8  1624.5
733.6  1620
733.4  1624.5
733.2  1642.25
733  1635.5
732.8  1634.25
732.6  1613.25
732.4  1619.75
732.2  1620
732  1630.5
731.8  1623.5
731.6  1604.25
731.4  1547.75
731.2  1580.5
731  1609
730.8  1649.25
730.6  1606.5
730.4  1572.75
730.2  1610.5
730  1634.25
729.8  1596
729.6  1589.25
729.4  1590.25
729.2  1608
729  1624.75
728.8  1639.5
728.6  1627
728.4  1585.25
728.2  1630.25
728  1639
727.8  1625.5
727.6  1580.25
727.4  1610.25
727.2  1608.5
727  1580.75
726.8  1579
726.6  1665.75
726.4  1636
726.2  1618.25
726  1609.5
725.8  1620.25
725.6  1608
725.4  1614
725.2  1640.75
725  1627
724.8  1596
724.6  1601.25
724.4  1605
724.2  1596
724  1583.75
723.8  1620.5
723.6  1623.75
723.4  1601.25
723.2  1591
723  1620.75
722.8  1601.25
722.6  1584.75
722.4  1602.25
722.2  1623.75
722  1602.75
721.8  1612.75
721.6  1579.75
721.4  1591.25
721.2  1613.75
721  1635.5
720.8  1591.75
720.6  1613.5
720.4  1615
720.2  1574.5
720  1596
719.8  1588.75
719.6  1609.25
719.4  1607.25
719.2  1615.25
719  1610.25
718.8  1593.75
718.6  1605.75
718.4  1568.5
718.2  1556.5
718  1582.5
717.8  1573.5
717.6  1592.25
717.4  1586.25
717.2  1595
717  1596.5
716.8  1632.75
716.6  1604.5
716.4  1557.75
716.2  1599.25
716  1579.5
715.8  1617
715.6  1557.25
715.4  1571.75
715.2  1559.75
715  1601.75
714.8  1584
714.6  1632
714.4  1623.75
714.2  1617.5
714  1574
713.8  1572.5
713.6  1612
713.4  1588.5
713.2  1576.25
713  1580
712.8  1593.5
712.6  1616.75
712.4  1597.75
712.2  1574.75
712  1597.25
711.8  1579.25
711.6  1593.25
711.4  1615.75
711.2  1564.5
711  1582.25
710.8  1588.75
710.6  1616
710.4  1603.5
710.2  1588.25
710  1615.25
709.8  1572.75
709.6  1637.5
709.4  1565.75
709.2  1582
709  1541.25
708.8  1611
708.6  1593.5
708.4  1580.25
708.2  1629.5
708  1551.5
707.8  1621.5
707.6  1543
707.4  1585.5
707.2  1548.25
707  1602.75
706.8  1600.75
706.6  1590
706.4  1581.5
706.2  1620.5
706  1595.5
705.8  1576.5
705.6  1561
705.4  1563.5
705.2  1570.75
705  1558.25
704.8  1568.25
704.6  1574.5
704.4  1570.25
704.2  1581.75
704  1609
703.8  1547.75
703.6  1548.75
703.4  1579.75
703.2  1572.25
703  1572
702.8  1589.75
702.6  1598.25
702.4  1544
702.2  1583.25
702  1617
701.8  1551.25
701.6  1569.75
701.4  1570
701.2  1549.75
701  1585.25
700.8  1558.5
700.6  1573
700.4  1568
700.2  1572.5
700  1574.75
699.8  1573.5
699.6  1628.5
699.4  1588.25
699.2  1578.5
699  1562.5
698.8  1568.75
698.6  1606.75
698.4  1600.5
698.2  1571.5
698  1549.75
697.8  1589.75
697.6  1566
697.4  1559.75
697.2  1588.5
697  1563.25
696.8  1576
696.6  1564.75
696.4  1527
696.2  1580.75
696  1552.5
695.8  1558.5
695.6  1583.5
695.4  1573.5
695.2  1553.5
695  1568.25
694.8  1546.5
694.6  1563
694.4  1597.25
694.2  1584.5
694  1579.5
693.8  1586.25
693.6  1534.5
693.4  1581.25
693.2  1577.25
693  1561.25
692.8  1578.75
692.6  1605.5
692.4  1548.25
692.2  1592
692  1564
691.8  1536.75
691.6  1588.5
691.4  1579.25
691.2  1568
691  1584.75
690.8  1592.75
690.6  1568.25
690.4  1531.75
690.2  1552.75
690  1593
689.8  1548
689.6  1563.5
689.4  1563.25
689.2  1595.25
689  1582.5
688.8  1542.5
688.6  1588.5
688.4  1604.25
688.2  1584
688  1551.25
687.8  1579.5
687.6  1571.5
687.4  1559.75
687.2  1578.25
687  1550.75
686.8  1584.5
686.6  1526.75
686.4  1575.5
686.2  1575
686  1539.25
685.8  1589
685.6  1611.75
685.4  1582.25
685.2  1611.75
685  1591.5
684.8  1571.5
684.6  1595.75
684.4  1593
684.2  1555
684  1582.25
683.8  1542.25
683.6  1547.5
683.4  1565.5
683.2  1540.5
683  1564.5
682.8  1552
682.6  1586.5
682.4  1543.75
682.2  1570.25
682  1579
681.8  1559.75
681.6  1547
681.4  1590.5
681.2  1554.25
681  1587.25
680.8  1543
680.6  1544.25
680.4  1594.75
680.2  1549.75
680  1541
679.8  1578.75
679.6  1577.25
679.4  1593.25
679.2  1521.25
679  1578
678.8  1551.5
678.6  1577.5
678.4  1544.75
678.2  1576.75
678  1524.75
677.8  1599
677.6  1557.25
677.4  1569.75
677.2  1572.75
677  1581.25
676.8  1545
676.6  1568.25
676.4  1555.75
676.2  1544
676  1512.25
675.8  1562.75
675.6  1551.25
675.4  1525.25
675.2  1555
675  1585
674.8  1580.25
674.6  1573.25
674.4  1531.5
674.2  1561.5
674  1520.5
673.8  1570
673.6  1551
673.4  1577.5
673.2  1550
673  1564.25
672.8  1546.5
672.6  1552.75
672.4  1564
672.2  1519
672  1541.25
671.8  1542
671.6  1618
671.4  1540.75
671.2  1587
671  1548.75
670.8  1539
670.6  1577.25
670.4  1560
670.2  1562.75
670  1551.25
669.8  1580
669.6  1558.75
669.4  1551.25
669.2  1559.75
669  1539.25
668.8  1546.25
668.6  1534.25
668.4  1534.75
668.2  1590.5
668  1584.5
667.8  1558
667.6  1542.75
667.4  1514.25
667.2  1556.5
667  1509.75
666.8  1525.5
666.6  1548.25
666.4  1539.5
666.2  1562.75
666  1577.5
665.8  1572.25
665.6  1547.25
665.4  1555.75
665.2  1532.75
665  1559.75
664.8  1542.5
664.6  1535.5
664.4  1532.5
664.2  1549.75
664  1546.5
663.8  1535.25
663.6  1563.5
663.4  1542.25
663.2  1527
663  1553
662.8  1592.25
662.6  1523.75
662.4  1551.25
662.2  1544.75
662  1583.25
661.8  1580.25
661.6  1560
661.4  1535.75
661.2  1540.75
661  1548
660.8  1552.5
660.6  1559.75
660.4  1535.75
660.2  1581
660  1616
659.8  1545
659.6  1553.5
659.4  1516.5
659.2  1555.75
659  1558.25
658.8  1527.25
658.6  1545.25
658.4  1565.75
658.2  1571.5
658  1552
657.8  1547.5
657.6  1561.75
657.4  1574.75
657.2  1536.5
657  1543.75
656.8  1576.75
656.6  1573
656.4  1521.25
656.2  1570.5
656  1543.75
655.8  1531.75
655.6  1541.75
655.4  1541.75
655.2  1542
655  1538.5
654.8  1553.25
654.6  1528
654.4  1545.25
654.2  1586.25
654  1569.75
653.8  1581.5
653.6  1546
653.4  1550
653.2  1575.5
653  1580.25
652.8  1553.5
652.6  1561
652.4  1533.25
652.2  1520
652  1539.25
651.8  1558.25
651.6  1540.25
651.4  1578.75
651.2  1561.75
651  1575.25
650.8  1557.75
650.6  1580.25
650.4  1545
650.2  1543.75
650  1545.75
649.8  1523
649.6  1534.5
649.4  1515.75
649.2  1567.75
649  1529.75
648.8  1540.5
648.6  1541.25
648.4  1573.75
648.2  1560.75
648  1557.5
647.8  1538
647.6  1534.25
647.4  1513.25
647.2  1549.75
647  1567.75
646.8  1543
646.6  1576.75
646.4  1538.75
646.2  1558.25
646  1553.25
645.8  1580
645.6  1563.5
645.4  1589.5
645.2  1564.25
645  1564.75
644.8  1588.75
644.6  1515.25
644.4  1547
644.2  1587
644  1575.5
643.8  1565.5
643.6  1535
643.4  1570.75
643.2  1561.25
643  1551.5
642.8  1564.5
642.6  1576.5
642.4  1553
642.2  1551.75
642  1560.25
641.8  1577.5
641.6  1513.5
641.4  1550.75
641.2  1543.5
641  1512.5
640.8  1535.5
640.6  1539.5
640.4  1547.75
640.2  1593.75
640  1545.5
639.8  1543
639.6  1523.75
639.4  1529.25
639.2  1540.5
639  1574
638.8  1513
638.6  1537.25
638.4  1531.75
638.2  1556
638  1551.5
637.8  1559
637.6  1520
637.4  1577.5
637.2  1555
637  1552.5
636.8  1546.5
636.6  1558
636.4  1545.75
636.2  1550.25
636  1552.25
635.8  1512
635.6  1555.75
635.4  1533
635.2  1554.5
635  1502.75
634.8  1556.75
634.6  1526.25
634.4  1540.75
634.2  1554.25
634  1551.5
633.8  1563
633.6  1543.5
633.4  1561.25
633.2  1537.5
633  1596.75
632.8  1583.5
632.6  1538.5
632.4  1549.75
632.2  1561.5
632  1564.5
631.8  1555.5
631.6  1538.75
631.4  1527.5
631.2  1517.25
631  1538.75
630.8  1537.25
630.6  1548.5
630.4  1547.5
630.2  1522.75
630  1534.75
629.8  1532.25
629.6  1572.25
629.4  1582.25
629.2  1536
629  1539.5
628.8  1557.25
628.6  1586.75
628.4  1552.25
628.2  1595.25
628  1505.5
627.8  1556.25
627.6  1531.75
627.4  1570.75
627.2  1537.75
627  1544
626.8  1562.5
626.6  1532.75
626.4  1543.25
626.2  1574
626  1548.25
625.8  1532.25
625.6  1538.75
625.4  1576.5
625.2  1559.5
625  1532.5
624.8  1572.5
624.6  1509
624.4  1543.25
624.2  1547
624  1532.5
623.8  1557.25
623.6  1528.75
623.4  1557.75
623.2  1563.25
623  1531
622.8  1577.25
622.6  1571
622.4  1578.25
622.2  1534.25
622  1559.25
621.8  1578
621.6  1543.75
621.4  1551
621.2  1535.75
621  1553.75
620.8  1515.75
620.6  1564.75
620.4  1602
620.2  1551.5
620  1544.5
619.8  1554
619.6  1553.5
619.4  1556.75
619.2  1554.5
619  1531
618.8  1559.5
618.6  1557.25
618.4  1500.75
618.2  1543.75
618  1556.25
617.8  1571
617.6  1555.5
617.4  1523.25
617.2  1548.25
617  1540.25
616.8  1526.5
616.6  1528.5
616.4  1546.25
616.2  1535.5
616  1548.5
615.8  1557.75
615.6  1523.75
615.4  1547.75
615.2  1555.75
615  1543.25
614.8  1511.5
614.6  1555.5
614.4  1551
614.2  1562.75
614  1564
613.8  1553.5
613.6  1552.25
613.4  1551.5
613.2  1567.75
613  1574.25
612.8  1564.25
612.6  1577.75
612.4  1505
612.2  1514.5
612  1568
611.8  1561.25
611.6  1536.75
611.4  1575.75
611.2  1556.5
611  1567.75
610.8  1541.25
610.6  1529
610.4  1563.5
610.2  1573.5
610  1542.25
609.8  1553.75
609.6  1541.5
609.4  1525
609.2  1569
609  1514.25
608.8  1572
608.6  1516.75
608.4  1542.5
608.2  1563.25
608  1549
607.8  1565
607.6  1549.5
607.4  1529.25
607.2  1589.5
607  1557.25
606.8  1553.75
606.6  1571
606.4  1582.25
606.2  1541.75
606  1530
605.8  1530.75
605.6  1593.5
605.4  1578.75
605.2  1529.75
605  1547.5
604.8  1542.75
604.6  1551.5
604.4  1572.25
604.2  1537.75
604  1598.25
603.8  1545.75
603.6  1580
603.4  1553.25
603.2  1537.5
603  1522.75
602.8  1565.25
602.6  1557.5
602.4  1542
602.2  1566.75
602  1539.5
601.8  1549.25
601.6  1558
601.4  1571.5
601.2  1558.25
601  1534
600.8  1548
600.6  1529.75
600.4  1529
600.2  1536.75
600  1575.75
599.8  1572.25
599.6  1576.25
599.4  1567.5
599.2  1536.75
599  1548.25
598.8  1564.75
598.6  1532.75
598.4  1575
598.2  1548.25
598  1532
597.8  1564
597.6  1574.75
597.4  1572.75
597.2  1555.75
597  1536
596.8  1555.5
596.6  1571.75
596.4  1553
596.2  1577.5
596  1560.25
595.8  1563.25
595.6  1587.5
595.4  1591.25
595.2  1586.75
595  1564.25
594.8  1526.75
594.6  1522.25
594.4  1562
594.2  1558.25
594  1542
593.8  1578.5
593.6  1590.5
593.4  1567
593.2  1568.25
593  1510.5
592.8  1577.5
592.6  1575.5
592.4  1615.5
592.2  1524.25
592  1545
591.8  1555.75
591.6  1580.5
591.4  1608
591.2  1591.75
591  1615.5
590.8  1580.25
590.6  1580.25
590.4  1587.25
590.2  1608.25
590  1567.25
589.8  1561.25
589.6  1565.25
589.4  1571.5
589.2  1591
589  1578
588.8  1560.25
588.6  1582.25
588.4  1602.25
588.2  1571.5
588  1602
587.8  1597.75
587.6  1606.25
587.4  1574.75
587.2  1586.75
587  1584.5
586.8  1577.5
586.6  1617.5
586.4  1560
586.2  1586.75
586  1563.75
585.8  1601.75
585.6  1589
585.4  1615.25
585.2  1561.25
585  1593
584.8  1618.5
584.6  1537
584.4  1605
584.2  1578.5
584  1566.5
583.8  1563.75
583.6  1570.25
583.4  1577
583.2  1579
583  1593.75
582.8  1575.5
582.6  1600.75
582.4  1547.25
582.2  1571.5
582  1586.5
581.8  1579.5
581.6  1578.75
581.4  1564.5
581.2  1596
581  1553.25
580.8  1583.75
580.6  1595
580.4  1571.25
580.2  1572.25
580  1561.25
579.8  1547.5
579.6  1574.5
579.4  1565.25
579.2  1555.75
579  1526.25
578.8  1576
578.6  1549.5
578.4  1555.5
578.2  1558.25
578  1555.25
577.8  1575.75
577.6  1553.5
577.4  1535.5
577.2  1570
577  1547
576.8  1531.5
576.6  1578.75
576.4  1525
576.2  1560.5
576  1528.75
575.8  1574.25
575.6  1586.75
575.4  1568.25
575.2  1517.25
575  1497
574.8  1594.25
574.6  1579
574.4  1575.5
574.2  1543.25
574  1528.5
573.8  1554.5
573.6  1535.5
573.4  1528
573.2  1549.25
573  1515
572.8  1491.75
572.6  1534.25
572.4  1519
572.2  1532.75
572  1546.5
571.8  1572.75
571.6  1537.5
571.4  1494.5
571.2  1509.5
571  1501.75
570.8  1519.25
570.6  1547.25
570.4  1494.25
570.2  1505.25
570  1485
569.8  1494.25
569.6  1510.75
569.4  1517.5
569.2  1481.25
569  1495.5
568.8  1467.25
568.6  1505.25
568.4  1505.75
568.2  1502.5
568  1500.75
567.8  1493.5
567.6  1506
567.4  1515.75
567.2  1525.25
567  1512.75
566.8  1535.5
566.6  1504.75
566.4  1561.25
566.2  1577
566  1552.75
565.8  1530.5
565.6  1576
565.4  1575.75
565.2  1565
565  1616.5
564.8  1595
564.6  1671
564.4  1620.75
564.2  1618
564  1600.75
563.8  1611.75
563.6  1646.25
563.4  1669.25
563.2  1612
563  1642.25
562.8  1613.75
562.6  1683.5
562.4  1663.5
562.2  1683.25
562  1716
561.8  1695.25
561.6  1691
561.4  1697
561.2  1731.25
561  1714
560.8  1756.75
560.6  1750.5
560.4  1731.5
560.2  1757.75
560  1742.75
559.8  1746
559.6  1781.25
559.4  1781.75
559.2  1767.25
559  1763
558.8  1735.25
558.6  1748.75
558.4  1734.25
558.2  1770.5
558  1743
557.8  1794.5
557.6  1772.5
557.4  1763.5
557.2  1711
557  1746.25
556.8  1685.75
556.6  1676.5
556.4  1667
556.2  1651
556  1644.5
555.8  1630.5
555.6  1585
555.4  1569.75
555.2  1567
555  1601.5
554.8  1540.75
554.6  1527.25
554.4  1545.5
554.2  1492.5
554  1492.25
553.8  1475.5
553.6  1491.5
553.4  1479.25
553.2  1436.5
553  1452.5
552.8  1445.75
552.6  1403.75
552.4  1428.5
552.2  1440.25
552  1418.5
551.8  1395.25
551.6  1394
551.4  1385
551.2  1377.5
551  1364
550.8  1348.5
550.6  1379.25
550.4  1357
550.2  1376.75
550  1288.25
549.8  1334.25
549.6  1331
549.4  1302.5
549.2  1283.25
549  1327
548.8  1248
548.6  1265.25
548.4  1281.5
548.2  1210.25
548  1225.5
547.8  1226.25
547.6  1219.75
547.4  1233.25
547.2  1166
547  1183.5
546.8  1162
546.6  1129
546.4  1102.75
546.2  1083
546  1105
545.8  1060.25
545.6  1072
545.4  1009.25
545.2  1035
545  989.5
544.8  995.25
544.6  977.25
544.4  993
544.2  942
544  963.25
543.8  948.75
543.6  946.25
543.4  926.25
543.2  919
543  921.75
542.8  899.5
542.6  958.5
542.4  927.5
542.2  938
542  935.25
541.8  922
541.6  925
541.4  908.5
541.2  926.25
541  935.75
540.8  948.5
540.6  934
540.4  955.25
540.2  967.75
540  997.75
539.8  998
539.6  1024
539.4  1037.75
539.2  1050.25
539  1086.75
538.8  1123.25
538.6  1180
538.4  1260
538.2  1385.75
538  1500
537.8  1674.5
537.6  1993
537.4  2329.75
537.2  2808.75
537  3335
536.8  4028.5
536.6  4785.75
536.4  5478
536.2  6221.5
536  6640
535.8  6922
535.6  6971.5
535.4  6700
535.2  6299.75
535  5617.25
534.8  4832.5
534.6  4056.25
534.4  3409.5
534.2  2775.5
534  2313.75
533.8  1885
533.6  1651.75
533.4  1422.25
533.2  1293
533  1206.25
532.8  1114.25
532.6  1068.25
532.4  1032.75
532.2  984.25
532  955.75
531.8  956
531.6  937.5
531.4  937.75
531.2  961.75
531  913.5
530.8  901.25
530.6  924.25
530.4  888
530.2  863.25
530  867
529.8  859.75
529.6  845.25
529.4  843.25
529.2  857.75
529  846.5
528.8  798.5
528.6  831.75
528.4  814.25
528.2  818.75
528  836.25
527.8  876
527.6  893
527.4  910.5
527.2  922.75
527  980.5
526.8  1063.25
526.6  1109.5
526.4  1137.75
526.2  1172
526  1207.5
525.8  1208.75
525.6  1183
525.4  1190.5
525.2  1180
525  1140
524.8  1095
524.6  1108.25
524.4  1041.5
524.2  1004.25
524  991.75
523.8  1014.75
523.6  998
523.4  975.75
523.2  927.75
523  905.25
522.8  877
522.6  850.25
522.4  803.25
522.2  799.5
522  765.75
521.8  778.5
521.6  760.5
521.4  751.5
521.2  761.25
521  722.25
520.8  748.25
520.6  744.5
520.4  728.5
520.2  741.75
520  719.5
519.8  736.5
519.6  725.25
519.4  729.25
519.2  721
519  716.5
518.8  725
518.6  725.5
518.4  728
518.2  703
518  696.25
517.8  708.5
517.6  725.75
517.4  706.75
517.2  717.75
517  715
516.8  721.75
516.6  722.75
516.4  733.5
516.2  735.5
516  725.5
515.8  740
515.6  750.5
515.4  720.5
515.2  749.5
515  737.75
514.8  716
514.6  711.25
514.4  728.5
514.2  716.25
514  738.25
513.8  703
513.6  732.5
513.4  727.5
513.2  746.75
513  731.5
512.8  733
512.6  712.25
512.4  714.75
512.2  692.5
512  722
511.8  731.5
511.6  712
511.4  724.5
511.2  729.25
511  695.25
510.8  690.5
510.6  687
510.4  696.25
510.2  736.5
510  705.25
509.8  729.25
509.6  688.5
509.4  695.75
509.2  725.25
509  709.75
508.8  695.5
508.6  708.25
508.4  701.5
508.2  712.25
508  686.75
507.8  685.5
507.6  711.75
507.4  718.5
507.2  694.5
507  720.25
506.8  695.75
506.6  707.25
506.4  669.75
506.2  694.5
506  703
505.8  687.5
505.6  705.5
505.4  701.5
505.2  702.25
505  713
504.8  694.75
504.6  690.5
504.4  714
504.2  690.25
504  718
503.8  662.75
503.6  721
503.4  725.25
503.2  698.5
503  716.25
502.8  719.25
502.6  707
502.4  709
502.2  720.25
502  728.5
501.8  705.25
501.6  725.25
501.4  716
501.2  706.25
501  713.5
500.8  705.25
500.6  695.25
500.4  700.75
500.2  711.5
500  689.75
499.8  720.75
499.6  721.5
499.4  689.75
499.2  668.5
499  710.5
498.8  699
498.6  698.5
498.4  713.25
498.2  698.25
498  687.75
497.8  713.5
497.6  685.75
497.4  696.25
497.2  704.75
497  675.5
496.8  696.75
496.6  684.25
496.4  702.5
496.2  685
496  709.75
495.8  686.75
495.6  712
495.4  686.75
495.2  699
495  700.5
494.8  684.75
494.6  683.25
494.4  685.25
494.2  690
494  689.25
493.8  698.5
493.6  679
493.4  702.5
493.2  687
493  678.5
492.8  691.25
492.6  718.75
492.4  692.5
492.2  692.75
492  682.75
491.8  687.25
491.6  694.5
491.4  695
491.2  693.75
491  702.25
490.8  697
490.6  690.25
490.4  707
490.2  706.5
490  674.25
489.8  701
489.6  687
489.4  707.75
489.2  724
489  684
488.8  683.25
488.6  682.5
488.4  699.25
488.2  693.75
488  676.5
487.8  690.25
487.6  683
487.4  716.75
487.2  688
487  685.75
486.8  692.75
486.6  692.5
486.4  673.5
486.2  698
486  686.25
485.8  692.5
485.6  697.75
485.4  713.75
485.2  697.5
485  665.75
484.8  659.75
484.6  686.75
484.4  685.5
484.2  705
484  652.25
483.8  676.25
483.6  683.25
483.4  674
483.2  690
483  671.5
482.8  676.5
482.6  690.5
482.4  695.5
482.2  685.75
482  693
481.8  707
481.6  674.75
481.4  679.75
481.2  681.25
481  687
480.8  669.75
480.6  699.5
480.4  698.25
480.2  692.5
480  684.25
479.8  705.25
479.6  680.75
479.4  689.25
479.2  676
479  699.25
478.8  675.25
478.6  689
478.4  688
478.2  659.5
478  678.5
477.8  657.25
477.6  676.25
477.4  673
477.2  695.25
477  650
476.8  666.25
476.6  684.5
476.4  676
476.2  667.5
476  653.75
475.8  677.75
475.6  687
475.4  669
475.2  667.25
475  666.25
474.8  669
474.6  707
474.4  671
474.2  677
474  671.75
473.8  705.75
473.6  677
473.4  658.25
473.2  669.5
473  674
472.8  690
472.6  660.25
472.4  688
472.2  675.25
472  688
471.8  663.75
471.6  669.25
471.4  705.5
471.2  663.75
471  679
470.8  672.5
470.6  695.75
470.4  697
470.2  683.5
470  669
469.8  691.25
469.6  708
469.4  708.25
469.2  690
469  707.75
468.8  676.5
468.6  712.5
468.4  709.5
468.2  691.5
468  716
467.8  717.75
467.6  699.75
467.4  728.25
467.2  737.25
467  713.5
466.8  722
466.6  730.75
466.4  745
466.2  731.75
466  737.5
465.8  715.5
465.6  744.25
465.4  714.75
465.2  727.5
465  729
464.8  732.5
464.6  737
464.4  761
464.2  743.25
464  715.25
463.8  710.25
463.6  693.75
463.4  713.5
463.2  715.75
463  716.75
462.8  690.25
462.6  693.75
462.4  682.75
462.2  688.75
462  686
461.8  676.75
461.6  658.5
461.4  661.75
461.2  655.5
461  646
460.8  677.5
460.6  690.25
460.4  672.5
460.2  667.75
460  674.75
459.8  674
459.6  645.75
459.4  652.5
459.2  665.5
459  654
458.8  678.75
458.6  641.75
458.4  635
458.2  675.5
458  649.25
457.8  636.25
457.6  666.75
457.4  676.25
457.2  637.5
457  642
456.8  665.25
456.6  656.5
456.4  636
456.2  635
456  652.25
455.8  669.25
455.6  634
455.4  648.5
455.2  637
455  706
454.8  659.75
454.6  666
454.4  657.5
454.2  643.75
454  633.25
453.8  648.25
453.6  639.75
453.4  652.75
453.2  642
453  647.5
452.8  634.25
452.6  649
452.4  672.5
452.2  641
452  648.5
451.8  636.5
451.6  638.5
451.4  634
451.2  629.5
451  615
450.8  660
450.6  644.5
450.4  658.5
450.2  636.75
450  665
449.8  634.25
449.6  656.75
449.4  655.75
449.2  653.75
449  634
448.8  631.25
448.6  653
448.4  656.25
448.2  629.5
448  653.5
447.8  627
447.6  650
447.4  649.25
447.2  645.5
447  646
446.8  666
446.6  658.75
446.4  665
446.2  643.75
446  638.75
445.8  637.75
445.6  642
445.4  667.25
445.2  643.25
445  623.5
444.8  669.75
444.6  651
444.4  636.5
444.2  651.75
444  651.25
443.8  659
443.6  669.75
443.4  635.75
443.2  664.25
443  670.75
442.8  627.5
442.6  657.75
442.4  643.75
442.2  667.5
442  630.25
441.8  640.75
441.6  643.75
441.4  644.25
441.2  643.25
441  633.25
440.8  659.75
440.6  638.5
440.4  629.5
440.2  635.75
440  654.5
439.8  667.5
439.6  646
439.4  667.25
439.2  639
439  653.5
438.8  644.5
438.6  624.25
438.4  643.75
438.2  641.5
438  642.25
437.8  620.75
437.6  651.5
437.4  658.75
437.2  681
437  646.5
436.8  631.25
436.6  657.75
436.4  636.5
436.2  651
436  637.75
435.8  647.25
435.6  624.5
435.4  631.25
435.2  622.5
435  641
434.8  632.25
434.6  640.5
434.4  642.5
434.2  656.75
434  626.5
433.8  638.25
433.6  621
433.4  659.5
433.2  650.5
433  646.5
432.8  651
432.6  633.25
432.4  605.25
432.2  632.25
432  645.25
431.8  647.5
431.6  637.25
431.4  651.25
431.2  635.5
431  630.75
430.8  644
430.6  648.25
430.4  658
430.2  614.5
430  663.5
429.8  641
429.6  646.5
429.4  649.5
429.2  616.25
429  633
428.8  654.25
428.6  649.5
428.4  617.25
428.2  657.75
428  652
427.8  664.75
427.6  664.5
427.4  660.5
427.2  630.75
427  645
426.8  643.75
426.6  657.5
426.4  640.25
426.2  656
426  639.25
425.8  668
425.6  673.25
425.4  631.25
425.2  629.25
425  630.5
424.8  661.75
424.6  637.75
424.4  630.25
424.2  668.25
424  659
423.8  639.5
423.6  632.75
423.4  632.75
423.2  656
423  626
422.8  636.75
422.6  628.5
422.4  652.5
422.2  650
422  648
421.8  620
421.6  635
421.4  616.75
421.2  629.5
421  637.75
420.8  654.25
420.6  649.75
420.4  628.5
420.2  643.75
420  625.25
419.8  646.75
419.6  615.5
419.4  659.75
419.2  630.75
419  630.25
418.8  640.5
418.6  654.75
418.4  652.75
418.2  646.25
418  653.5
417.8  647
417.6  622
417.4  647.5
417.2  635.25
417  647
416.8  655.75
416.6  654
416.4  644.25
416.2  641
416  671.75
415.8  655.5
415.6  669.25
415.4  644.75
415.2  686.75
415  643.5
414.8  635.5
414.6  633.5
414.4  634.75
414.2  637.5
414  623.25
413.8  648.75
413.6  631.5
413.4  652.75
413.2  638.25
413  643.25
412.8  663.5
412.6  626.5
412.4  647.75
412.2  648
412  630
411.8  651
411.6  612.75
411.4  633
411.2  620.5
411  640.5
410.8  622.25
410.6  636.75
410.4  642
410.2  627
410  649.5
409.8  638.75
409.6  622.75
409.4  625
409.2  654.25
409  650.5
408.8  647.5
408.6  633.25
408.4  664.5
408.2  657.75
408  640.25
407.8  676.25
407.6  646.25
407.4  639
407.2  652.75
407  640.25
406.8  640
406.6  663.5
406.4  643.5
406.2  647.5
406  664.75
405.8  651.75
405.6  717.75
405.4  668
405.2  658
405  658.25
404.8  674.25
404.6  650.25
404.4  649
404.2  666.25
404  680.5
403.8  687.5
403.6  682.25
403.4  683.25
403.2  676
403  701
402.8  679
402.6  688.25
402.4  676
402.2  645.25
402  699.25
401.8  703.75
401.6  716.25
401.4  690.25
401.2  686.75
401  666
400.8  666.25
400.6  689.5
400.4  673.25
400.2  674
400  665.75
399.8  658
399.6  652.5
399.4  653.5
399.2  682
399  634.75
398.8  655.5
398.6  666.5
398.4  657.25
398.2  641
398  661.75
397.8  654
397.6  639
397.4  664.5
397.2  688
397  650.75
396.8  663.5
396.6  658.5
396.4  643.25
396.2  652.25
396  643.75
395.8  658
395.6  664.75
395.4  645.5
395.2  636.25
395  604.25
394.8  638.25
394.6  627
394.4  621.75
394.2  619
394  633.5
393.8  622.5
393.6  626.5
393.4  671.75
393.2  639.75
393  622.5
392.8  611.25
392.6  630.75
392.4  633.25
392.2  646.75
392  602.75
391.8  639
391.6  637.75
391.4  623.75
391.2  614.5
391  634.75
390.8  616
390.6  636.75
390.4  624.25
390.2  614
390  630.25
389.8  623.75
389.6  594.75
389.4  596.25
389.2  593.5
389  632.25
388.8  613.75
388.6  614.75
388.4  596.5
388.2  623.25
388  618
387.8  626.25
387.6  616.25
387.4  602.75
387.2  612.5
387  627
386.8  617
386.6  594.75
386.4  624.75
386.2  605.75
386  583.75
385.8  624.75
385.6  639
385.4  619.25
385.2  613.25
385  624.75
384.8  600.75
384.6  618.25
384.4  611
384.2  618.5
384  596.5
383.8  606.75
383.6  613.5
383.4  611
383.2  601.75
383  623.25
382.8  606.5
382.6  599
382.4  632.5
382.2  591.25
382  599
381.8  607.5
381.6  610
381.4  615.5
381.2  604.25
381  598.75
380.8  608.5
380.6  612.5
380.4  606.25
380.2  627
380  614.5
379.8  586
379.6  620.25
379.4  609.75
379.2  601.5
379  620.5
378.8  598
378.6  609.75
378.4  597
378.2  603.25
378  595
377.8  588
377.6  614
377.4  614.75
377.2  601.75
377  595.25
376.8  597
376.6  614.75
376.4  604
376.2  604.75
376  606.5
375.8  600.5
375.6  612
375.4  622.75
375.2  590.75
375  625.75
374.8  617
374.6  623.25
374.4  596.25
374.2  622.5
374  617.25
373.8  618.75
373.6  601.5
373.4  598.5
373.2  580.25
373  624
372.8  602.75
372.6  600.75
372.4  586.75
372.2  599
372  598.75
371.8  618
371.6  631.25
371.4  601.25
371.2  601.5
371  614.75
370.8  609.25
370.6  611.5
370.4  612
370.2  614.25
370  609.25
369.8  599.5
369.6  612.5
369.4  601
369.2  619.5
369  604.75
368.8  595
368.6  596.25
368.4  602.75
368.2  613.75
368  591.25
367.8  591.5
367.6  605.5
367.4  608.5
367.2  628.75
367  621
366.8  600.75
366.6  614.25
366.4  601
366.2  580.5
366  592
365.8  602.75
365.6  593.25
365.4  604.25
365.2  603.25
365  596
364.8  596.25
364.6  601.25
364.4  598.5
364.2  632.5
364  624.75
363.8  631.5
363.6  597.75
363.4  584.25
363.2  609.25
363  615
362.8  592
362.6  614.5
362.4  617.25
362.2  606.75
362  605.75
361.8  621.5
361.6  618.75
361.4  610.25
361.2  611.25
361  594.5
360.8  601.75
360.6  602
360.4  623.75
360.2  613.75
360  619
359.8  679
359.6  616
359.4  618.75
359.2  630
359  611.75
358.8  614.5
358.6  611.5
358.4  594.25
358.2  594
358  631
357.8  624.5
357.6  604.75
357.4  632.75
357.2  624.25
357  603
356.8  600
356.6  620
356.4  592.25
356.2  613.25
356  626.75
355.8  615
355.6  611.5
355.4  587.75
355.2  589.25
355  608.25
354.8  615.5
354.6  620.5
354.4  620
354.2  607.75
354  597.75
353.8  607.75
353.6  623.25
353.4  631
353.2  615.25
353  634.75
352.8  607
352.6  621.5
352.4  624.5
352.2  614
352  632.75
351.8  603.25
351.6  616
351.4  634.5
351.2  611.25
351  624
350.8  628
350.6  633.25
350.4  621.75
350.2  619.5
350  653.75
349.8  625.75
349.6  639.25
349.4  622.5
349.2  639.25
349  646.5
348.8  640.25
348.6  635
348.4  650.25
348.2  654
348  639.5
347.8  625.75
347.6  625
347.4  629.5
347.2  640
347  622.75
346.8  611.75
346.6  626.5
346.4  612.5
346.2  603.25
346  623.75
345.8  606.75
345.6  598.75
345.4  619.75
345.2  596.5
345  612
344.8  604
344.6  599.25
344.4  608.25
344.2  628.25
344  599.75
343.8  581
343.6  606.75
343.4  604.75
343.2  604
343  597.5
342.8  599.25
342.6  595.25
342.4  608.75
342.2  596.5
342  596.25
341.8  609.75
341.6  607
341.4  611
341.2  607.25
341  614
340.8  615.5
340.6  629
340.4  601.25
340.2  601
340  627
339.8  621.25
339.6  635
339.4  620.25
339.2  602
339  633.5
338.8  618.75
338.6  625.5
338.4  603.25
338.2  603.5
338  596.5
337.8  590.75
337.6  611.5
337.4  600.25
337.2  627.25
337  593.5
336.8  631.75
336.6  622
336.4  631.5
336.2  581
336  599
335.8  606.5
335.6  598.75
335.4  620.25
335.2  594.25
335  619.5
334.8  610.5
334.6  591.75
334.4  593.25
334.2  598.25
334  611.75
333.8  620
333.6  589.25
333.4  612.5
333.2  579.25
333  601
332.8  598.25
332.6  598.75
332.4  615.5
332.2  602.25
332  611.75
331.8  597.5
331.6  597.25
331.4  604.5
331.2  596.5
331  603.25
330.8  595.75
330.6  617.5
330.4  587.75
330.2  591.75
330  600.75
329.8  619.25
329.6  586
329.4  622.75
329.2  590.5
329  610.75
328.8  597.25
328.6  586.75
328.4  596.25
328.2  596.25
328  584
327.8  624
327.6  611
327.4  603.25
327.2  588.75
327  601
326.8  604
326.6  596.75
326.4  596.25
326.2  601.75
326  601.75
325.8  613.75
325.6  567.75
325.4  602.5
325.2  602.5
325  602.25
324.8  608.75
324.6  601.25
324.4  616.5
324.2  603.25
324  607.25
323.8  617
323.6  605.25
323.4  608
323.2  614
323  611.5
322.8  599.5
322.6  600
322.4  596.75
322.2  601
322  627.75
321.8  600.5
321.6  590.25
321.4  606.75
321.2  599.75
321  597
320.8  595.25
320.6  607.25
320.4  625.5
320.2  615.5
320  612.5
319.8  597.5
319.6  598.5
319.4  583.5
319.2  586.5
319  594.5
318.8  579
318.6  584.25
318.4  580
318.2  611.25
318  593
317.8  603
317.6  581.25
317.4  604.5
317.2  608.25
317  593
316.8  608.25
316.6  583.75
316.4  591.75
316.2  578.25
316  595.75
315.8  619.5
315.6  600.25
315.4  610.75
315.2  604.75
315  595
314.8  617.75
314.6  598.25
314.4  600.75
314.2  611.5
314  614.75
313.8  612
313.6  594.25
313.4  619.25
313.2  584.25
313  576.25
312.8  602
312.6  588.25
312.4  599
312.2  597.75
312  615.5
311.8  584.75
311.6  582.5
311.4  613.5
311.2  608
311  579.5
310.8  595.5
310.6  586
310.4  594
310.2  615.75
310  619
309.8  591.5
309.6  604
309.4  606.75
309.2  616.25
309  604.75
308.8  614.5
308.6  587
308.4  607
308.2  593.5
308  627
307.8  619.25
307.6  630.5
307.4  589.75
307.2  579.75
307  598.25
306.8  614.75
306.6  587.25
306.4  619.25
306.2  586.5
306  601
305.8  588.5
305.6  630.5
305.4  593.5
305.2  602.75
305  608.75
304.8  611.75
304.6  621
304.4  613.5
304.2  574.75
304  587.25
303.8  588.25
303.6  601.25
303.4  585
303.2  590
303  632
302.8  591.75
302.6  605.25
302.4  589.25
302.2  594.5
302  583
301.8  564.75
301.6  578
301.4  590.25
301.2  607
301  595.25
300.8  625
300.6  580.5
300.4  608.5
300.2  593.75
300  591.25
299.8  594.75
299.6  602.75
299.4  600.5
299.2  596.75
299  618.75
298.8  616.75
298.6  601
298.4  578.25
298.2  598.25
298  605.25
297.8  603.75
297.6  569.75
297.4  601
297.2  606.5
297  621.75
296.8  591.25
296.6  606.25
296.4  598.5
296.2  583.5
296  622.25
295.8  592.75
295.6  613.25
295.4  602.75
295.2  600.5
295  616
294.8  625
294.6  597
294.4  607.75
294.2  603.75
294  586.25
293.8  551.75
293.6  581.75
293.4  615.25
293.2  601.25
293  595
292.8  600
292.6  608.5
292.4  596.75
292.2  595.5
292  601
291.8  615
291.6  610.5
291.4  597.75
291.2  615.25
291  649.25
290.8  651
290.6  643.5
290.4  675.25
290.2  686.25
290  688.5
289.8  725.75
289.6  749.25
289.4  761.5
289.2  762.5
289  771.5
288.8  786.5
288.6  750.75
288.4  790.5
288.2  795.5
288  789.75
287.8  778.75
287.6  775.25
287.4  769
287.2  759.25
287  741.5
286.8  728.75
286.6  708
286.4  695.75
286.2  677.25
286  669.75
285.8  657.75
285.6  626
285.4  628.5
285.2  631.75
285  617.25
284.8  632
284.6  613.75
284.4  615
284.2  613.5
284  603.25
283.8  622.5
283.6  610.75
283.4  583
283.2  603.5
283  574.75
282.8  596.75
282.6  591.25
282.4  603
282.2  578.25
282  593.25
281.8  593.25
281.6  591.75
281.4  608.75
281.2  588.75
281  584
280.8  595.75
280.6  585.75
280.4  589.25
280.2  598
280  572.5
279.8  570.5
279.6  585.5
279.4  601.75
279.2  607.5
279  602.25
278.8  597.5
278.6  608.75
278.4  611.75
278.2  608.5
278  589.75
277.8  571.5
277.6  621.5
277.4  597.75
277.2  609
277  612.75
276.8  589.75
276.6  599
276.4  591.75
276.2  579.5
276  619
275.8  606.25
275.6  593.75
275.4  593.75
275.2  562.25
275  603
274.8  560.25
274.6  612
274.4  588
274.2  578.75
274  589.5
273.8  583.5
273.6  586
273.4  599
273.2  593.75
273  581.75
272.8  603.75
272.6  577
272.4  586.5
272.2  590.25
272  597
271.8  588
271.6  605.75
271.4  583
271.2  576.75
271  590.25
270.8  581
270.6  590
270.4  569.75
270.2  558
270  586.25
269.8  581.25
269.6  588
269.4  560
269.2  574
269  598
268.8  560.5
268.6  586.25
268.4  592.5
268.2  550.75
268  593
267.8  597.5
267.6  581.25
267.4  574.5
267.2  574.25
267  598.5
266.8  580.5
266.6  577.5
266.4  601.25
266.2  588.25
266  587.75
265.8  589.25
265.6  580.5
265.4  586.5
265.2  585
265  598.5
264.8  583
264.6  589.5
264.4  588
264.2  606.75
264  587.75
263.8  585.75
263.6  595.25
263.4  586.5
263.2  585.5
263  585
262.8  610
262.6  590.25
262.4  567
262.2  584
262  586.25
261.8  599
261.6  563
261.4  599.5
261.2  589
261  579.5
260.8  588
260.6  597.25
260.4  590.75
260.2  599.25
260  598.5
259.8  600.75
259.6  580
259.4  596.25
259.2  575
259  574.5
258.8  605.25
258.6  581
258.4  577
258.2  592.25
258  589.75
257.8  593.5
257.6  594.25
257.4  606.5
257.2  611.25
257  620
256.8  588.5
256.6  582.5
256.4  573.75
256.2  595
256  591
255.8  564.25
255.6  593
255.4  588.5
255.2  585
255  577
254.8  608.25
254.6  612.75
254.4  567.75
254.2  572.25
254  585.75
253.8  565
253.6  593.25
253.4  573.25
253.2  575.75
253  583.75
252.8  569.5
252.6  566.5
252.4  575.5
252.2  599.25
252  593
251.8  575.25
251.6  604.5
251.4  578.25
251.2  590.75
251  614.75
250.8  583.75
250.6  596
250.4  575.5
250.2  567.25
250  584.25
249.8  592
249.6  581.75
249.4  586.5
249.2  599.75
249  580
248.8  601.75
248.6  585.75
248.4  599.25
248.2  578.5
248  596
247.8  576.75
247.6  608
247.4  604.25
247.2  606.5
247  602.5
246.8  626
246.6  598.25
246.4  568
246.2  734
246  598.75
245.8  615
245.6  605.75
245.4  615.25
245.2  606.75
245  603.5
244.8  607
244.6  582
244.4  575
244.2  618.75
244  599.25
243.8  596.5
243.6  599
243.4  616.5
243.2  596.5
243  600.75
242.8  623.75
242.6  601.5
242.4  603.25
242.2  599.5
242  606.75
241.8  608.5
241.6  623
241.4  604
241.2  599
241  604.75
240.8  613
240.6  596.75
240.4  618
240.2  611
240  601.5
239.8  627.25
239.6  608.25
239.4  616.75
239.2  634.5
239  595.75
238.8  632.75
238.6  623
238.4  621.5
238.2  605.5
238  610.5
237.8  587.5
237.6  595.25
237.4  610.5
237.2  605.75
237  597.5
236.8  618.75
236.6  607.25
236.4  616.75
236.2  601.25
236  687.25
235.8  600
235.6  605.5
235.4  604.25
235.2  628
235  612.5
234.8  615
234.6  629
234.4  630.25
234.2  588.5
234  607
233.8  642
233.6  625.75
233.4  622.25
233.2  627.25
233  631.75
232.8  621.75
232.6  624.5
232.4  631.75
232.2  627
232  641
231.8  637
231.6  631.5
231.4  652
231.2  628.5
231  646.5
230.8  620.75
230.6  630.5
230.4  614.5
230.2  626.25
230  630.5
229.8  619.75
229.6  614
229.4  623.25
229.2  618.5
229  613.5
228.8  608
228.6  581
228.4  596.75
228.2  599
228  587.25
227.8  596.5
227.6  589.25
227.4  581.75
227.2  593.75
227  595.75
226.8  575.5
226.6  583
226.4  589
226.2  594.25
226  587.75
225.8  583.5
225.6  579
225.4  581.75
225.2  561
225  565.75
224.8  556
224.6  568.75
224.4  555.75
224.2  570
224  571.75
223.8  554.5
223.6  566.5
223.4  564.25
223.2  557.75
223  562
222.8  549
222.6  530
222.4  556.25
222.2  537.25
222  553
221.8  555.25
221.6  547.25
221.4  549
221.2  574.5
221  545.25
220.8  564.5
220.6  559.5
220.4  537.5
220.2  544.75
220  541.75
219.8  550
219.6  531.5
219.4  551.5
219.2  540
219  559
218.8  555.5
218.6  526
218.4  536
218.2  560.75
218  540
217.8  552.25
217.6  546.5
217.4  553
217.2  528.5
217  526
216.8  544.25
216.6  547.75
216.4  527.5
216.2  542.5
216  551.5
215.8  537.75
215.6  554.75
215.4  538
215.2  542
215  524.75
214.8  543.25
214.6  528.5
214.4  543
214.2  546.5
214  555
213.8  527.25
213.6  563.5
213.4  514.25
213.2  536.75
213  541
212.8  532.5
212.6  542.5
212.4  500.75
212.2  543
212  539.5
211.8  542.5
211.6  531.25
211.4  538
211.2  545.75
211  551
210.8  563
210.6  521.75
210.4  515.75
210.2  557.75
210  536.75
209.8  554
209.6  544
209.4  530.5
209.2  553.25
209  552.5
208.8  565.75
208.6  522
208.4  538.5
208.2  545.75
208  530.5
207.8  530.5
207.6  548.5
207.4  528
207.2  553.5
207  529
206.8  548
206.6  555.75
206.4  541.75
206.2  538.75
206  518.75
205.8  553.5
205.6  548.5
205.4  548
205.2  527.75
205  546.75
204.8  561
204.6  543.75
204.4  563
204.2  555.25
204  557.75
203.8  551.75
203.6  562.75
203.4  566
203.2  544.25
203  555.5
202.8  533
202.6  542.25
202.4  560.75
202.2  539.75
202  556.5
201.8  559.5
201.6  560.75
201.4  561
201.2  558.25
201  533.5
200.8  543.75
200.6  521.5
200.4  524.5
200.2  551.25
200  536.5
199.8  550.25
199.6  548.75
199.4  514.5
199.2  554.5
199  538.75
198.8  543.5
198.6  555
198.4  542.25
198.2  528
198  548.75
197.8  535.25
197.6  526.5
197.4  512.25
197.2  528
197  537
196.8  556
196.6  534.75
196.4  528.75
196.2  526.75
196  557.25
195.8  559.75
195.6  532
195.4  535.75
195.2  546.25
195  542.5
194.8  518.75
194.6  543.75
194.4  536
194.2  529.25
194  553
193.8  544.75
193.6  527.75
193.4  541
193.2  523.25
193  549.25
192.8  539.5
192.6  537.25
192.4  530.75
192.2  541.75
192  547.25
191.8  552.75
191.6  536.25
191.4  530.5
191.2  548.75
191  548.5
190.8  543.75
190.6  529.75
190.4  534
190.2  518.75
190  535.5
189.8  546.5
189.6  550
189.4  530.75
189.2  553.25
189  535.75
188.8  539
188.6  533.75
188.4  539
188.2  552.75
188  545
187.8  545
187.6  527.5
187.4  536.25
187.2  534.75
187  563.75
186.8  561
186.6  553.75
186.4  545.5
186.2  554.75
186  555.5
185.8  563.5
185.6  546.75
185.4  541.5
185.2  577.25
185  570.5
184.8  552.5
184.6  580.25
184.4  564.25
184.2  585
184  563.75
183.8  572.5
183.6  571
183.4  572.5
183.2  574.75
183  567.25
182.8  590.5
182.6  592.75
182.4  565.5
182.2  560.25
182  591.75
181.8  590.25
181.6  576
181.4  577.25
181.2  580.5
181  590
180.8  585
180.6  588.25
180.4  596
180.2  594.25
180  569.75
179.8  569.5
179.6  592
179.4  591.75
179.2  582
179  573.25
178.8  590.75
178.6  543
178.4  594
178.2  588.25
178  586.75
177.8  556.25
177.6  571.75
177.4  566
177.2  577.75
177  590
176.8  580.5
176.6  551.75
176.4  549
176.2  566.25
176  573.75
175.8  548
175.6  546
175.4  554.25
175.2  583.5
175  545
174.8  567.75
174.6  554
174.4  527.5
174.2  545
174  542.75
173.8  528
173.6  548.5
173.4  527
173.2  546.25
173  518.25
172.8  506
172.6  516.25
172.4  523
172.2  544
172  530
171.8  529.25
171.6  521
171.4  519.75
171.2  510.25
171  530.5
170.8  505.5
170.6  505.5
170.4  520.25
170.2  505.75
170  507.25
169.8  495.5
169.6  508.5
169.4  522.5
169.2  521.75
169  487.75
168.8  490.5
168.6  508.25
168.4  491
168.2  473.5
168  478
167.8  478.75
167.6  464.75
167.4  475.5
167.2  472.5
167  491.25
166.8  462.75
166.6  472
166.4  458
166.2  468.75
166  473.75
165.8  463.75
165.6  455.25
165.4  471
165.2  480.25
165  496.5
164.8  448
164.6  474.25
164.4  470.5
164.2  459
164  488.25
163.8  462
163.6  476.75
163.4  458.25
163.2  461
163  476.75
162.8  452.5
162.6  477.25
162.4  488.25
162.2  488.5
162  497.5
161.8  523.5
161.6  494.5
161.4  498.5
161.2  526.25
161  524.25
160.8  534.5
160.6  540.75
160.4  550.5
160.2  576.75
160  631.25
159.8  650
159.6  682.25
159.4  728.25
159.2  778.5
159  842.75
158.8  897.25
158.6  963.75
158.4  1040.25
158.2  1111
158  1169
157.8  1241
157.6  1230.25
157.4  1261.25
157.2  1252
157  1215.75
156.8  1158
156.6  1135.75
156.4  1022.25
156.2  992.5
156  893.5
155.8  869.25
155.6  800.25
155.4  745.25
155.2  680.5
155  642
154.8  614.75
154.6  582.25
154.4  570.25
154.2  575.25
154  525.5
153.8  509.5
153.6  510.25
153.4  511
153.2  504
153  488.5
152.8  491
152.6  485
152.4  501
152.2  470.75
152  465.75
151.8  458
151.6  470.5
151.4  488
151.2  471.75
151  444.5
150.8  459.25
150.6  482.25
150.4  459.75
150.2  462.75
150  458.25
149.8  451.25
149.6  457
149.4  452.75
149.2  470.5
149  479
148.8  486.5
148.6  497.25
148.4  486.75
148.2  489.75
148  489.25
147.8  504.5
147.6  502.75
147.4  492.75
147.2  508
147  496.75
146.8  472
146.6  479
146.4  506.5
146.2  495.5
146  584.75
145.8  465.25
145.6  471
145.4  489.25
145.2  470.75
145  451.75
144.8  461.25
144.6  445.5
144.4  445.25
144.2  459.5
144  440.5
143.8  438.5
143.6  444.25
143.4  446
143.2  447.25
143  431.25
142.8  450
142.6  434.25
142.4  436.75
142.2  426.75
142  442.75
141.8  442.25
141.6  409.25
141.4  431.25
141.2  425.75
141  427
140.8  424.5
140.6  409.5
140.4  440.25
140.2  424
140  405
139.8  419.5
139.6  418.5
139.4  419.75
139.2  415.5
139  439.75
138.8  438.75
138.6  434.5
138.4  414
138.2  414.5
138  407
137.8  422.25
137.6  431.75
137.4  404.5
137.2  420.25
137  412.25
136.8  430
136.6  418
136.4  423
136.2  437.5
136  426.75
135.8  423
135.6  432.25
135.4  416.25
135.2  413.75
135  433
134.8  423.5
134.6  420.75
134.4  426.75
134.2  417.25
134  450.25
133.8  433.5
133.6  441.5
133.4  453.25
133.2  440.25
133  454.25
132.8  434
132.6  452.5
132.4  453.25
132.2  451.5
132  442.25
131.8  443.5
131.6  442
131.4  448
131.2  452
131  451.75
130.8  457.5
130.6  443
130.4  434.25
130.2  452.5
130  437.5
129.8  458.5
129.6  454
129.4  456
129.2  463.75
129  457.75
128.8  458
128.6  446.25
128.4  456.25
128.2  444.25
128  455.75
127.8  423.25
127.6  450
127.4  438
127.2  448.75
127  451.75
126.8  445.25
126.6  440.25
126.4  446
126.2  455.25
126  441.25
125.8  438.5
125.6  451.25
125.4  446.5
125.2  433.25
125  433.75
124.8  448.75
124.6  448.75
124.4  434.5
124.2  419.5
124  426.5
123.8  429
123.6  430
123.4  425.5
123.2  399.5
123  422.5
122.8  426.75
122.6  413.75
122.4  411.75
122.2  405.5
122  414.25
121.8  405.25
121.6  403
121.4  421.25
121.2  403.5
121  405
120.8  404.75
120.6  410.25
120.4  402.75
120.2  420.75
120  412.75
119.8  392.75
119.6  390.5
119.4  385.75
119.2  385
119  388.75
118.8  413.25
118.6  371.25
118.4  372.5
118.2  392.75
118  364.75
117.8  370.5
117.6  388
117.4  375.75
117.2  357
117  365.75
116.8  366.5
116.6  351.5
116.4  347.25
116.2  374
116  340.5
115.8  354
115.6  360.25
115.4  334
115.2  351.75
115  360.5
114.8  349.75
114.6  346.5
114.4  341.75
114.2  336
114  340.25
113.8  346.75
113.6  347.75
113.4  354
113.2  358.25
113  342.75
112.8  345.25
112.6  349.5
112.4  349.5
112.2  353.5
112  340
111.8  354.25
111.6  345.5
111.4  348
111.2  350.75
111  365.5
110.8  353.5
110.6  337.75
110.4  342
110.2  371.75
110  355.5
109.8  377.75
109.6  359.5
109.4  373
109.2  387.25
109  412.5
108.8  422
108.6  454.25
108.4  558.75
108.2  559.75
108  647.5
107.8  698.5
107.6  811
107.4  907.5
107.2  1047.5
107  1131.75
106.8  1204.75
106.6  1262
106.4  1288.5
106.2  1255.25
106  1189.25
105.8  1093.75
105.6  981.5
105.4  858.75
105.2  739.5
105  671
104.8  588.75
104.6  510.25
104.4  480.25
104.2  447.25
104  427
103.8  377.25
103.6  372.5
103.4  369.25
103.2  347.5
103  345.75
102.8  344.75
102.6  351
102.4  335.25
102.2  336.5
102  327.25
101.8  319.25
101.6  306.75
101.4  329.5
101.2  342.75
101  336.5
100.8  337.25
100.6  345.5
100.4  320
100.2  332.75
100  334.75
99.8  337.25
99.6  331
99.4  324.5
99.2  309.75
99  330.25
98.8  323.75
98.6  321
98.4  355
98.2  336.5
98  343.75
97.8  349.75
97.6  376.75
97.4  359.25
97.2  367.5
97  362.5
96.8  392
96.6  397.5
96.4  388.5
96.2  384.25
96  380.25
95.8  373.5
95.6  367.75
95.4  376.25
95.2  374
95  359.75
94.8  355.75
94.6  370
94.4  368.5
94.2  347
94  360.5
93.8  333.75
93.6  345.75
93.4  328
93.2  343.25
93  342.25
92.8  337.75
92.6  340.25
92.4  339.25
92.2  319.5
92  332
91.8  327.5
91.6  331.75
91.4  324.25
91.2  325
91  328.75
90.8  322.5
90.6  331.25
90.4  319
90.2  337.75
90  324.5
89.8  329.25
89.6  330
89.4  313.5
89.2  330.75
89  312
88.8  329.25
88.6  345
88.4  319
88.2  330.25
88  331.25
87.8  330.25
87.6  347
87.4  339.75
87.2  344
87  333.25
86.8  330
86.6  320.5
86.4  317.5
86.2  322.25
86  342.25
85.8  328.25
85.6  312
85.4  324.5
85.2  338.5
85  323.75
84.8  319
84.6  310
84.4  322
84.2  315.5
84  308.25
83.8  318
83.6  301.25
83.4  305.25
83.2  320.25
83  311.25
82.8  320.75
82.6  324.25
82.4  313
82.2  319.5
82  331
81.8  337.75
81.6  313
81.4  309
81.2  302.5
81  300.5
80.8  319.25
80.6  298.75
80.4  326
80.2  307
80  316.25
79.8  304
79.6  317.25
79.4  303
79.2  315.5
79  329
78.8  316.75
78.6  325.5
78.4  325
78.2  307.25
78  313.5
77.8  307.75
77.6  308.5
77.4  304.5
77.2  310
77  323
76.8  309.5
76.6  302.25
76.4  298.25
76.2  328
76  319.25
75.8  311.25
75.6  311
75.4  289.75
75.2  308.5
75  316.5
74.8  301.75
74.6  325.5
74.4  301.75
74.2  318.25
74  298.75
73.8  328.5
73.6  307.75
73.4  309.75
73.2  329.5
73  299.75
72.8  308.75
72.6  287
72.4  322.75
72.2  308.5
72  316
71.8  320
71.6  302.5
71.4  302.25
71.2  308
71  288.75
70.8  301.5
70.6  304.5
70.4  290.25
70.2  307.25
70  315.5
69.8  300.5
69.6  313.75
69.4  321.75
69.2  314.25
69  293
68.8  311.5
68.6  305
68.4  328.75
68.2  299
68  306.25
67.8  310.75
67.6  303.75
67.4  319.75
67.2  306
67  305
66.8  307.25
66.6  325.5
66.4  301.5
66.2  312.25
66  317.5
65.8  303
65.6  321.75
65.4  303.5
65.2  304.5
65  302.25
64.8  337.75
64.6  309.75
64.4  323
64.2  298.75
64  305
63.8  310.75
63.6  315.25
63.4  303
63.2  312.5
63  299
62.8  314.5
62.6  311.5
62.4  309.75
62.2  324.5
62  292.5
61.8  313.25
61.6  310.75
61.4  304.75
61.2  296
61  303.75
60.8  294.75
60.6  314
60.4  306.5
60.2  308.25
60  314
59.8  329
59.6  314.25
59.4  307.25
59.2  323.25
59  300.25
58.8  311.75
58.6  313.25
58.4  313.25
58.2  317
58  304.25
57.8  319.5
57.6  312.5
57.4  315.5
57.2  432.5
57  311.75
56.8  305.5
56.6  327
56.4  302.25
56.2  326.25
56  314.5
55.8  321.75
55.6  297.25
55.4  316.75
55.2  309.5
55  305.75
54.8  330
54.6  323.5
54.4  337.25
54.2  330.25
54  323.75
53.8  320.25
53.6  327
53.4  327.5
53.2  325.75
53  310.5
52.8  314.75
52.6  312.5
52.4  328.75
52.2  308
52  321.5
51.8  322
51.6  319.25
51.4  326.5
51.2  317.75
51  324
50.8  320.5
50.6  315.5
50.4  296.25
50.2  320.5
50  322
49.8  320.75
49.6  305.25
49.4  322
49.2  328.25
49  343
48.8  324.5
48.6  302.25
48.4  311
48.2  312.25
48  340.5
47.8  300.5
47.6  314.5
47.4  318.5
47.2  301
47  313.75
46.8  312.75
46.6  311.75
46.4  308.5
46.2  311.5
46  306.25
45.8  322.5
45.6  323.75
45.4  309
45.2  309
45  313
44.8  303.5
44.6  285.75
44.4  312
44.2  330.5
44  305.75
43.8  309.75
43.6  301.75
43.4  307.25
43.2  294.5
43  310.75
42.8  302.5
42.6  302.75
42.4  310.5
42.2  299
42  297.25
41.8  314.75
41.6  324.25
41.4  310.75
41.2  327.5
41  304.5
40.8  308.75
40.6  295
40.4  321.5
40.2  303.75
40  311.25
39.8  317.5
39.6  320
39.4  316.5
39.2  301
39  307.5
38.8  313.25
38.6  309.25
38.4  300.5
38.2  304.25
38  309.75
37.8  303
37.6  318.5
37.4  319
37.2  305
37  324
36.8  323.25
36.6  299.5
36.4  315.75
36.2  307.75
36  317
35.8  295.5
35.6  328
35.4  337.5
35.2  312.75
35  307.5
34.8  327
34.6  321.75
34.4  332
34.2  319.5
34  294.5
33.8  305.25
33.6  300
33.4  318.25
33.2  306
33  308
32.8  317.75
32.6  298.25
32.4  318
32.2  312.5
32  316.25
31.8  313.25
31.6  344.5
31.4  334.25
31.2  316
31  346.75
30.8  333.5
30.6  367
30.4  368.25
30.2  399.75
30  391.75
29.8  417.5
29.6  420.25
29.4  416.5
29.2  429.75
29  442.25
28.8  434.5
28.6  456
28.4  449.75
28.2  446.5
28  474.75
27.8  450.25
27.6  415.25
27.4  412.5
27.2  416.25
27  416.25
26.8  413.75
26.6  400.75
26.4  359.25
26.2  353.5
26  355.75
25.8  331
25.6  316.5
25.4  334.25
25.2  318
25  330
24.8  315.25
24.6  325.5
24.4  307.5
24.2  319.25
24  310.5
23.8  320
23.6  323.25
23.4  329.75
23.2  317.5
23  315
22.8  312
22.6  285
22.4  283.5
22.2  289.25
22  278.25
21.8  277.5
21.6  283.25
21.4  267
21.2  262.75
21  260
20.8  265.75
20.6  263.5
20.4  264.75
20.2  260
20  253.25
19.8  266.75
19.6  255.5
19.4  245.5
19.2  276.5
19  281
18.8  286.75
18.6  299.5
18.4  301.25
18.2  282.5
18  272
17.8  288
17.6  277.75
17.4  294.5
17.2  284.75
17  302.25
16.8  297.5
16.6  286.75
16.4  266
16.2  299.5
16  279.75
15.8  279.75
15.6  290.25
15.4  291.25
15.2  279.75
15  277.25
14.8  276.5
14.6  269.5
14.4  276.25
14.2  281
14  268.25
13.8  280.5
13.6  257.75
13.4  263.25
13.2  278
13  262.25
12.8  287.25
12.6  270.5
12.4  275.75
12.2  274.25
12  266
11.8  260.75
11.6  273.25
11.4  263
11.2  283.5
11  266.25
10.8  268.25
10.6  286.25
10.4  268.75
10.2  274.75
10  270.25
9.8  277
9.6  252.25
9.4  261.25
9.2  264.75
9  262.75
8.8  267.5
8.6  262.25
8.4  252.5
8.2  247.5
8  257.5
7.8  241.75
7.6  263.5
7.4  253.5
7.2  252.5
7  258.25
6.8  241.75
6.6  249.5
6.4  256
6.2  234.25
6  237
5.8  244.25
5.6  245.5
5.4  236.75
5.2  241.75
5  236.5
4.8  255.25
4.6  232
4.4  239
4.2  231.25
4  229
3.8  231.25
3.6  229.25
3.4  233
3.2  235.25
3  235
2.8  230.25
2.6  242.25
2.4  251.5
2.2  232
2  234
1.8  237.75
1.6  238
1.4  229.75
1.2  231.25
1  236.75
0.8  230.5
0.6  246
0.4  241.25
0.2  229.5
-2.2737368e-013  229.5
-0.2  217.75
-0.4  224.75
-0.6  230.5
-0.8  241.25
-1  232.75
-1.2  231
-1.4  243.5
-1.6  233
-1.8  233
-2  223.75
-2.2  215
-2.4  215
-2.6  235.75
-2.8  241.25
-3  207.25
-3.2  223.5
-3.4  228.5
-3.6  237.75
-3.8  233
-4  229.75

