# Created by:        SpecsLab Prodigy, Version 4.60.2-r85849 
#
# XY-Serializer Export Settings:
#   Comment Prefix:           #
#   Output meta data:         yes
#   Energy Axis:              Binding Energy
#   Count Rate:               Counts per Second
#   Separate Scan Data:       no
#   Separate Channel Data:    no
#   External Channel Data:    yes
#   Transmission Function:    no
#   ErrorBar:                 no
#   Operation Results:        yes
#   Time Zone Format:         UTC
#
# Group:             Spectrum Group
#
# Region:            C1s
# Acquisition Date:  09/15/22 10:45:43 UTC
# Analysis Method:   XPS
# Analyzer:          Phoibos 100 R6
# Analyzer Lens:     LargeArea:1.5kV
# Analyzer Slit:     1:0.2x20\B:open
# Scan Mode:         FixedAnalyzerTransmission
# Curves/Scan:       1
# Values/Curve:      151
# Dwell Time:        0.8
# Excitation Energy: 1486.61
# Binding Energy:    295
# Pass Energy:       30
# Bias Voltage:      90
# Detector Voltage:  2600
# Eff. Workfunction: 4.309
# Source:            X-Ray Dummy
# Comment:           
#
# Cycle: 0
# Number of Scans: 10
#
# Cycle: 0, Curve: 0
# Acquisition Date: 09/15/22 10:45:43 UTC
#
# ColumnLabels: energy counts/s
#
295  896.625
294.9  851.25
294.8  852.25
294.7  858.5
294.6  845.625
294.5  852.5
294.4  848.875
294.3  857.25
294.2  863.75
294.1  854.875
294  834.625
293.9  844.25
293.8  858.625
293.7  848.625
293.6  852
293.5  849.625
293.4  835.875
293.3  858.125
293.2  841.375
293.1  853.375
293  866.5
292.9  861.75
292.8  859.625
292.7  844.625
292.6  853.375
292.5  860.75
292.4  846.875
292.3  863.625
292.2  862.625
292.1  863.875
292  849.875
291.9  861.625
291.8  866.25
291.7  871.75
291.6  856.375
291.5  850.625
291.4  867
291.3  856.375
291.2  871.5
291.1  864.125
291  865.5
290.9  857
290.8  863.125
290.7  866.625
290.6  866
290.5  857.125
290.4  900.75
290.3  869.625
290.2  864.125
290.1  883.25
290  883.5
289.9  872.75
289.8  885.375
289.7  867.875
289.6  869.25
289.5  892
289.4  900.25
289.3  870
289.2  896.75
289.1  899.75
289  899.75
288.9  898.5
288.8  917
288.7  906.5
288.6  910.625
288.5  925.25
288.4  935.125
288.3  940.125
288.2  966.375
288.1  954.875
288  970.125
287.9  970
287.8  1006.75
287.7  985.875
287.6  1002.5
287.5  993.875
287.4  1004.25
287.3  1005.75
287.2  1068.375
287.1  1044.75
287  1078.25
286.9  1054
286.8  1065.875
286.7  1065.625
286.6  1083.875
286.5  1097.875
286.4  1103.5
286.3  1113.125
286.2  1101.25
286.1  1110.125
286  1097.125
285.9  1113.375
285.8  1098.5
285.7  1092
285.6  1087.125
285.5  1072.5
285.4  1035.875
285.3  1043.5
285.2  1029.125
285.1  1032.125
285  990.125
284.9  974.75
284.8  979.625
284.7  973.875
284.6  954.25
284.5  922.25
284.4  904.25
284.3  898.25
284.2  883
284.1  901.125
284  882
283.9  875.625
283.8  882.375
283.7  879.25
283.6  874.125
283.5  855.875
283.4  853.75
283.3  850
283.2  856
283.1  862.5
283  841.625
282.9  839.375
282.8  861.375
282.7  819.375
282.6  836.5
282.5  849.875
282.4  848
282.3  849.625
282.2  848.5
282.1  843.125
282  857.75
281.9  830.625
281.8  848.75
281.7  838.875
281.6  842.625
281.5  855.375
281.4  852.375
281.3  834.875
281.2  851.5
281.1  834
281  826.875
280.9  831.375
280.8  848.625
280.7  825
280.6  839.875
280.5  853.875
280.4  834.625
280.3  856
280.2  839.5
280.1  838
280  836.75

# Region:            In3d
# Acquisition Date:  09/15/22 07:46:16 UTC
# Analysis Method:   XPS
# Analyzer:          Phoibos 100 R6
# Analyzer Lens:     LargeArea:1.5kV
# Analyzer Slit:     1:0.2x20\B:open
# Scan Mode:         FixedAnalyzerTransmission
# Curves/Scan:       1
# Values/Curve:      231
# Dwell Time:        0.8
# Excitation Energy: 1486.61
# Binding Energy:    460
# Pass Energy:       30
# Bias Voltage:      90
# Detector Voltage:  2600
# Eff. Workfunction: 4.309
# Source:            X-Ray Dummy
# Comment:           
#
# Cycle: 0
# Number of Scans: 1
#
# Cycle: 0, Curve: 0
# Acquisition Date: 09/15/22 07:46:16 UTC
#
# ColumnLabels: energy counts/s
#
460  2802.5
459.9  2836.25
459.8  2850
459.7  2830
459.6  2932.5
459.5  2780
459.4  2843.75
459.3  2825
459.2  2836.25
459.1  2860
459  2950
458.9  2806.25
458.8  2796.25
458.7  2816.25
458.6  2811.25
458.5  2847.5
458.4  2803.75
458.3  2828.75
458.2  2803.75
458.1  2611.25
458  2815
457.9  2671.25
457.8  2791.25
457.7  2763.75
457.6  2796.25
457.5  2883.75
457.4  2743.75
457.3  2738.75
457.2  2833.75
457.1  2748.75
457  2771.25
456.9  2875
456.8  2778.75
456.7  2888.75
456.6  2877.5
456.5  2815
456.4  2937.5
456.3  2898.75
456.2  2876.25
456.1  2967.5
456  2992.5
455.9  3186.25
455.8  3166.25
455.7  3296.25
455.6  3337.5
455.5  3402.5
455.4  3418.75
455.3  3570
455.2  3718.75
455.1  3822.5
455  3908.75
454.9  4257.5
454.8  4475
454.7  4605
454.6  5066.25
454.5  5065
454.4  5387.5
454.3  5752.5
454.2  6262.5
454.1  6418.75
454  6838.75
453.9  7441.25
453.8  7660
453.7  8073.75
453.6  8685
453.5  8855
453.4  9375
453.3  9672.5
453.2  9917.5
453.1  10217.5
453  10405
452.9  10348.75
452.8  10735
452.7  10491.25
452.6  10417.5
452.5  10066.25
452.4  9617.5
452.3  9363.75
452.2  8522.5
452.1  7987.5
452  7822.5
451.9  6947.5
451.8  6345
451.7  5798.75
451.6  5065
451.5  4712.5
451.4  4171.25
451.3  3933.75
451.2  3707.5
451.1  3401.25
451  3140
450.9  2978.75
450.8  2812.5
450.7  2518.75
450.6  2513.75
450.5  2456.25
450.4  2402.5
450.3  2467.5
450.2  2238.75
450.1  2330
450  2312.5
449.9  2225
449.8  2281.25
449.7  2310
449.6  2196.25
449.5  2317.5
449.4  2291.25
449.3  2373.75
449.2  2271.25
449.1  2276.25
449  2507.5
448.9  2426.25
448.8  2508.75
448.7  2445
448.6  2582.5
448.5  2732.5
448.4  2765
448.3  2686.25
448.2  2867.5
448.1  2901.25
448  3062.5
447.9  3177.5
447.8  3553.75
447.7  3585
447.6  3708.75
447.5  3975
447.4  4318.75
447.3  4653.75
447.2  4820
447.1  5302.5
447  5708.75
446.9  5933.75
446.8  6417.5
446.7  6992.5
446.6  7581.25
446.5  8005
446.4  8621.25
446.3  9368.75
446.2  9886.25
446.1  10681.25
446  11251.25
445.9  11407.5
445.8  12231.25
445.7  12778.75
445.6  13065
445.5  13192.5
445.4  13635
445.3  13750
445.2  13745
445.1  13686.25
445  13302.5
444.9  12725
444.8  12378.75
444.7  11715
444.6  10941.25
444.5  9961.25
444.4  8965
444.3  8305
444.2  7262.5
444.1  6865
444  6031.25
443.9  5495
443.8  4861.25
443.7  4258.75
443.6  3958.75
443.5  3660
443.4  3385
443.3  3266.25
443.2  3098.75
443.1  2823.75
443  2816.25
442.9  2691.25
442.8  2563.75
442.7  2565
442.6  2443.75
442.5  2291.25
442.4  2268.75
442.3  2247.5
442.2  2117.5
442.1  2003.75
442  2058.75
441.9  2002.5
441.8  1852.5
441.7  1915
441.6  1906.25
441.5  1813.75
441.4  1826.25
441.3  1857.5
441.2  1642.5
441.1  1751.25
441  1716.25
440.9  1682.5
440.8  1737.5
440.7  1681.25
440.6  1690
440.5  1577.5
440.4  1541.25
440.3  1525
440.2  1520
440.1  1526.25
440  1490
439.9  1460
439.8  1401.25
439.7  1373.75
439.6  1381.25
439.5  1420
439.4  1376.25
439.3  1320
439.2  1360
439.1  1317.5
439  1303.75
438.9  1345
438.8  1258.75
438.7  1260
438.6  1275
438.5  1302.5
438.4  1253.75
438.3  1231.25
438.2  1310
438.1  1280
438  1297.5
437.9  1271.25
437.8  1315
437.7  1326.25
437.6  1382.5
437.5  1286.25
437.4  1285
437.3  1422.5
437.2  1410
437.1  1402.5
437  1446.25

# Region:            Sn3d
# Acquisition Date:  09/15/22 07:49:24 UTC
# Analysis Method:   XPS
# Analyzer:          Phoibos 100 R6
# Analyzer Lens:     LargeArea:1.5kV
# Analyzer Slit:     1:0.2x20\B:open
# Scan Mode:         FixedAnalyzerTransmission
# Curves/Scan:       1
# Values/Curve:      231
# Dwell Time:        0.8
# Excitation Energy: 1486.61
# Binding Energy:    503
# Pass Energy:       30
# Bias Voltage:      90
# Detector Voltage:  2600
# Eff. Workfunction: 4.309
# Source:            X-Ray Dummy
# Comment:           
#
# Cycle: 0
# Number of Scans: 1
#
# Cycle: 0, Curve: 0
# Acquisition Date: 09/15/22 07:49:24 UTC
#
# ColumnLabels: energy counts/s
#
503  2980
502.9  3031.25
502.8  2907.5
502.7  3011.25
502.6  2985
502.5  2932.5
502.4  3167.5
502.3  2930
502.2  3020
502.1  2973.75
502  3020
501.9  3000
501.8  3035
501.7  2996.25
501.6  3021.25
501.5  3035
501.4  3035
501.3  2998.75
501.2  3051.25
501.1  2965
501  3003.75
500.9  3012.5
500.8  3028.75
500.7  3046.25
500.6  2988.75
500.5  3021.25
500.4  3047.5
500.3  3030
500.2  3100
500.1  3041.25
500  2980
499.9  2937.5
499.8  3062.5
499.7  2963.75
499.6  3013.75
499.5  3108.75
499.4  3098.75
499.3  2995
499.2  3055
499.1  2977.5
499  3055
498.9  3140
498.8  3021.25
498.7  3090
498.6  2980
498.5  3037.5
498.4  3160
498.3  2961.25
498.2  3122.5
498.1  3120
498  2992.5
497.9  3121.25
497.8  3140
497.7  3166.25
497.6  3232.5
497.5  3081.25
497.4  3172.5
497.3  3145
497.2  3081.25
497.1  3321.25
497  3276.25
496.9  3118.75
496.8  3235
496.7  3256.25
496.6  3271.25
496.5  3375
496.4  3425
496.3  3332.5
496.2  3393.75
496.1  3375
496  3501.25
495.9  3447.5
495.8  3453.75
495.7  3458.75
495.6  3463.75
495.5  3501.25
495.4  3522.5
495.3  3548.75
495.2  3570
495.1  3500
495  3407.5
494.9  3310
494.8  3142.5
494.7  3376.25
494.6  3346.25
494.5  3178.75
494.4  3182.5
494.3  3227.5
494.2  3201.25
494.1  3015
494  3213.75
493.9  3112.5
493.8  3092.5
493.7  3040
493.6  2932.5
493.5  3058.75
493.4  3027.5
493.3  3022.5
493.2  2982.5
493.1  2996.25
493  2906.25
492.9  2906.25
492.8  2920
492.7  2933.75
492.6  3000
492.5  2951.25
492.4  3038.75
492.3  2950
492.2  3036.25
492.1  2868.75
492  2977.5
491.9  2820
491.8  2872.5
491.7  2937.5
491.6  2955
491.5  2872.5
491.4  2918.75
491.3  2961.25
491.2  2961.25
491.1  2967.5
491  2921.25
490.9  2946.25
490.8  2953.75
490.7  2981.25
490.6  2955
490.5  3003.75
490.4  2907.5
490.3  3030
490.2  2986.25
490.1  2898.75
490  3003.75
489.9  3101.25
489.8  3120
489.7  3135
489.6  3205
489.5  3020
489.4  3113.75
489.3  3091.25
489.2  3121.25
489.1  3168.75
489  3231.25
488.9  3301.25
488.8  3220
488.7  3221.25
488.6  3400
488.5  3338.75
488.4  3328.75
488.3  3365
488.2  3513.75
488.1  3428.75
488  3482.5
487.9  3603.75
487.8  3550
487.7  3528.75
487.6  3560
487.5  3716.25
487.4  3737.5
487.3  3577.5
487.2  3600
487.1  3691.25
487  3572.5
486.9  3668.75
486.8  3692.5
486.7  3672.5
486.6  3498.75
486.5  3546.25
486.4  3522.5
486.3  3376.25
486.2  3443.75
486.1  3395
486  3281.25
485.9  3275
485.8  3237.5
485.7  3295
485.6  3146.25
485.5  3275
485.4  3063.75
485.3  3050
485.2  3122.5
485.1  3155
485  3163.75
484.9  2998.75
484.8  2982.5
484.7  2933.75
484.6  2933.75
484.5  2931.25
484.4  2992.5
484.3  2923.75
484.2  3045
484.1  2961.25
484  2956.25
483.9  3063.75
483.8  2920
483.7  3023.75
483.6  2953.75
483.5  2935
483.4  2962.5
483.3  2916.25
483.2  2957.5
483.1  3013.75
483  2950
482.9  2888.75
482.8  3052.5
482.7  2946.25
482.6  3012.5
482.5  2890
482.4  2868.75
482.3  2933.75
482.2  3023.75
482.1  2950
482  2917.5
481.9  2961.25
481.8  2972.5
481.7  2956.25
481.6  3067.5
481.5  2947.5
481.4  2985
481.3  2986.25
481.2  3125
481.1  3103.75
481  2967.5
480.9  2967.5
480.8  2923.75
480.7  2971.25
480.6  2946.25
480.5  3036.25
480.4  2980
480.3  2955
480.2  3116.25
480.1  3077.5
480  2915

# Region:            O1s
# Acquisition Date:  09/15/22 11:58:02 UTC
# Analysis Method:   XPS
# Analyzer:          Phoibos 100 R6
# Analyzer Lens:     LargeArea:1.5kV
# Analyzer Slit:     1:0.2x20\B:open
# Scan Mode:         FixedAnalyzerTransmission
# Curves/Scan:       1
# Values/Curve:      111
# Dwell Time:        0.8
# Excitation Energy: 1486.61
# Binding Energy:    538
# Pass Energy:       30
# Bias Voltage:      90
# Detector Voltage:  2600
# Eff. Workfunction: 4.309
# Source:            X-Ray Dummy
# Comment:           
#
# Cycle: 0
# Number of Scans: 28
#
# Cycle: 0, Curve: 0
# Acquisition Date: 09/15/22 11:58:02 UTC
#
# ColumnLabels: energy counts/s
#
538  3243.7946
537.9  3273.5714
537.8  3253.2589
537.7  3245.8036
537.6  3252.2768
537.5  3232.9464
537.4  3207.6786
537.3  3233.3482
537.2  3256.2946
537.1  3217.1875
537  3224.7321
536.9  3239.9107
536.8  3238.0804
536.7  3240.6696
536.6  3228.4821
536.5  3218.7946
536.4  3214.5982
536.3  3256.6071
536.2  3212.8125
536.1  3226.3839
536  3219.2411
535.9  3234.0625
535.8  3247.3214
535.7  3234.1071
535.6  3251.0268
535.5  3260.8482
535.4  3244.5536
535.3  3271.1607
535.2  3273.0804
535.1  3270.4464
535  3283.5714
534.9  3307.8125
534.8  3303.0804
534.7  3326.3393
534.6  3339.5536
534.5  3363.4821
534.4  3397.9464
534.3  3423.7054
534.2  3446.4732
534.1  3436.6071
534  3491.7857
533.9  3493.3929
533.8  3550.1339
533.7  3592.5446
533.6  3614.2857
533.5  3654.2411
533.4  3697.3214
533.3  3749.5089
533.2  3806.7411
533.1  3836.6071
533  3896.4286
532.9  3959.0179
532.8  4017.7232
532.7  4107.6786
532.6  4185.1339
532.5  4264.6429
532.4  4362.3661
532.3  4509.6429
532.2  4591.7857
532.1  4712.2768
532  4821.4732
531.9  4950.3125
531.8  5089.4643
531.7  5224.4643
531.6  5394.5536
531.5  5491.9196
531.4  5646.5179
531.3  5792.8571
531.2  5872.0982
531.1  5961.8304
531  6005.5357
530.9  6033.9732
530.8  6016.1607
530.7  5961.0714
530.6  5893.0804
530.5  5780.0446
530.4  5595.4911
530.3  5451.7411
530.2  5267.5446
530.1  5043.3036
530  4838.2143
529.9  4604.9107
529.8  4430
529.7  4233.9286
529.6  4074.2857
529.5  3882.0536
529.4  3767.8571
529.3  3629.1964
529.2  3549.9107
529.1  3463.0804
529  3389.4196
528.9  3330.4464
528.8  3290.5804
528.7  3288.75
528.6  3231.4286
528.5  3210.6696
528.4  3192.1875
528.3  3178.4375
528.2  3180.4464
528.1  3167.7232
528  3159.5982
527.9  3168.3482
527.8  3129.6429
527.7  3127.7679
527.6  3120.8036
527.5  3115.0446
527.4  3114.0625
527.3  3098.9286
527.2  3105.1339
527.1  3108.3482
527  3094.0625

# Region:            Si2p
# Acquisition Date:  09/15/22 11:56:31 UTC
# Analysis Method:   XPS
# Analyzer:          Phoibos 100 R6
# Analyzer Lens:     LargeArea:1.5kV
# Analyzer Slit:     1:0.2x20\B:open
# Scan Mode:         FixedAnalyzerTransmission
# Curves/Scan:       1
# Values/Curve:      101
# Dwell Time:        0.8
# Excitation Energy: 1486.61
# Binding Energy:    110
# Pass Energy:       30
# Bias Voltage:      90
# Detector Voltage:  2600
# Eff. Workfunction: 4.309
# Source:            X-Ray Dummy
# Comment:           
#
# Cycle: 0
# Number of Scans: 24
#
# Cycle: 0, Curve: 0
# Acquisition Date: 09/15/22 11:56:31 UTC
#
# ColumnLabels: energy counts/s
#
110  865
109.9  861.66667
109.8  845.41667
109.7  855
109.6  862.96875
109.5  875.78125
109.4  846.66667
109.3  858.02083
109.2  862.55208
109.1  855.05208
109  868.02083
108.9  866.25
108.8  851.51042
108.7  864.84375
108.6  870.36458
108.5  856.35417
108.4  853.02083
108.3  855.72917
108.2  862.86458
108.1  857.29167
108  853.54167
107.9  862.55208
107.8  865.625
107.7  859.32292
107.6  862.44792
107.5  855.98958
107.4  873.125
107.3  863.85417
107.2  873.69792
107.1  859.58333
107  857.70833
106.9  863.33333
106.8  869.0625
106.7  869.53125
106.6  868.28125
106.5  864.11458
106.4  860.57292
106.3  865.9375
106.2  862.23958
106.1  866.45833
106  860.20833
105.9  863.64583
105.8  860.36458
105.7  863.07292
105.6  859.89583
105.5  853.4375
105.4  882.5
105.3  876.14583
105.2  882.13542
105.1  874.79167
105  881.25
104.9  869.58333
104.8  869.11458
104.7  877.8125
104.6  873.59375
104.5  884.94792
104.4  876.25
104.3  884.84375
104.2  866.09375
104.1  875.9375
104  879.42708
103.9  878.07292
103.8  886.5625
103.7  895.98958
103.6  882.86458
103.5  886.35417
103.4  869.27083
103.3  870.88542
103.2  882.5
103.1  875.625
103  869.11458
102.9  883.33333
102.8  877.60417
102.7  882.91667
102.6  885.15625
102.5  885.20833
102.4  891.61458
102.3  878.33333
102.2  872.13542
102.1  883.28125
102  868.125
101.9  883.38542
101.8  869.94792
101.7  879.32292
101.6  886.97917
101.5  892.13542
101.4  891.875
101.3  883.125
101.2  881.82292
101.1  892.13542
101  879.6875
100.9  882.23958
100.8  879.84375
100.7  877.1875
100.6  873.48958
100.5  883.02083
100.4  884.89583
100.3  888.125
100.2  895.15625
100.1  905
100  877.70833

# Region:            N1s
# Acquisition Date:  09/15/22 09:04:24 UTC
# Analysis Method:   XPS
# Analyzer:          Phoibos 100 R6
# Analyzer Lens:     LargeArea:1.5kV
# Analyzer Slit:     1:0.2x20\B:open
# Scan Mode:         FixedAnalyzerTransmission
# Curves/Scan:       1
# Values/Curve:      121
# Dwell Time:        0.8
# Excitation Energy: 1486.61
# Binding Energy:    409
# Pass Energy:       30
# Bias Voltage:      90
# Detector Voltage:  2600
# Eff. Workfunction: 4.309
# Source:            X-Ray Dummy
# Comment:           
#
# Cycle: 0
# Number of Scans: 25
#
# Cycle: 0, Curve: 0
# Acquisition Date: 09/15/22 09:04:24 UTC
#
# ColumnLabels: energy counts/s
#
409  934.7
408.9  925.3
408.8  921.8
408.7  923.55
408.6  919.75
408.5  926.9
408.4  924
408.3  937.7
408.2  934.75
408.1  924.55
408  938.4
407.9  934.5
407.8  931.55
407.7  922.5
407.6  923.35
407.5  930.8
407.4  929.25
407.3  937.2
407.2  920.6
407.1  941.65
407  926.9
406.9  922.35
406.8  928.75
406.7  913.65
406.6  929.5
406.5  924.5
406.4  928.75
406.3  915.4
406.2  926.6
406.1  931.1
406  939.45
405.9  933.95
405.8  924.85
405.7  921.75
405.6  918.45
405.5  913.95
405.4  931.5
405.3  931.75
405.2  915.7
405.1  924.5
405  920.85
404.9  917.65
404.8  929.4
404.7  951.65
404.6  928.1
404.5  921.75
404.4  922.2
404.3  916.6
404.2  933.9
404.1  940.05
404  937.45
403.9  929.45
403.8  924.4
403.7  934.9
403.6  925.45
403.5  928.4
403.4  937.25
403.3  937.45
403.2  924.65
403.1  936.85
403  938.55
402.9  913.7
402.8  931.75
402.7  939.7
402.6  934.45
402.5  938.4
402.4  943.2
402.3  942.25
402.2  945.15
402.1  945.6
402  962.6
401.9  952.65
401.8  945.4
401.7  957.55
401.6  950.15
401.5  955.1
401.4  958.55
401.3  966.95
401.2  962.9
401.1  955.6
401  961.7
400.9  959.1
400.8  958.45
400.7  953.05
400.6  951.05
400.5  961
400.4  950.95
400.3  962.75
400.2  956.25
400.1  947.75
400  948.2
399.9  945.6
399.8  962.7
399.7  942.3
399.6  946.25
399.5  943.5
399.4  939.35
399.3  939.65
399.2  945.85
399.1  938.4
399  944
398.9  934.65
398.8  931.9
398.7  919.95
398.6  942.9
398.5  919.5
398.4  931.75
398.3  925.3
398.2  934.95
398.1  924.45
398  927.3
397.9  924.1
397.8  919.2
397.7  926.65
397.6  922.05
397.5  926.85
397.4  924.1
397.3  929.65
397.2  928.7
397.1  918.8
397  925.55

# Region:            Si2s
# Acquisition Date:  09/15/22 11:13:18 UTC
# Analysis Method:   XPS
# Analyzer:          Phoibos 100 R6
# Analyzer Lens:     LargeArea:1.5kV
# Analyzer Slit:     1:0.2x20\B:open
# Scan Mode:         FixedAnalyzerTransmission
# Curves/Scan:       1
# Values/Curve:      71
# Dwell Time:        0.8
# Excitation Energy: 1486.61
# Binding Energy:    157
# Pass Energy:       30
# Bias Voltage:      90
# Detector Voltage:  2600
# Eff. Workfunction: 4.309
# Source:            X-Ray Dummy
# Comment:           
#
# Cycle: 0
# Number of Scans: 15
#
# Cycle: 0, Curve: 0
# Acquisition Date: 09/15/22 11:13:18 UTC
#
# ColumnLabels: energy counts/s
#
157  876.91667
156.9  899.66667
156.8  867.83333
156.7  890.41667
156.6  869.75
156.5  893.5
156.4  877.08333
156.3  897.08333
156.2  885.66667
156.1  902.66667
156  869.83333
155.9  871.16667
155.8  870.16667
155.7  883.75
155.6  871.33333
155.5  880.58333
155.4  873.66667
155.3  853.33333
155.2  885.08333
155.1  874.41667
155  880.16667
154.9  892.91667
154.8  887.16667
154.7  870.41667
154.6  868
154.5  866.16667
154.4  872.75
154.3  878.08333
154.2  876.66667
154.1  856.16667
154  876.75
153.9  871.16667
153.8  879
153.7  862
153.6  871.58333
153.5  875.08333
153.4  867.58333
153.3  849.25
153.2  870.25
153.1  850
153  880.16667
152.9  886.83333
152.8  875.83333
152.7  879.75
152.6  875.58333
152.5  878.5
152.4  866.16667
152.3  874.33333
152.2  875.66667
152.1  878.58333
152  858.33333
151.9  865.08333
151.8  881.5
151.7  872.66667
151.6  885
151.5  864.5
151.4  876.75
151.3  867.58333
151.2  906.66667
151.1  830.58333
151  872.83333
150.9  877
150.8  878
150.7  883
150.6  866.41667
150.5  860.33333
150.4  860.16667
150.3  841.41667
150.2  865
150.1  861.41667
150  870.66667

# Region:            Ba3d
# Acquisition Date:  09/15/22 07:56:32 UTC
# Analysis Method:   XPS
# Analyzer:          Phoibos 100 R6
# Analyzer Lens:     LargeArea:1.5kV
# Analyzer Slit:     1:0.2x20\B:open
# Scan Mode:         FixedAnalyzerTransmission
# Curves/Scan:       1
# Values/Curve:      121
# Dwell Time:        0.8
# Excitation Energy: 1486.61
# Binding Energy:    789
# Pass Energy:       30
# Bias Voltage:      90
# Detector Voltage:  2600
# Eff. Workfunction: 4.309
# Source:            X-Ray Dummy
# Comment:           
#
# Cycle: 0
# Number of Scans: 1
#
# Cycle: 0, Curve: 0
# Acquisition Date: 09/15/22 07:56:32 UTC
#
# ColumnLabels: energy counts/s
#
789  4521.25
788.9  4501.25
788.8  4536.25
788.7  4488.75
788.6  4546.25
788.5  4362.5
788.4  4423.75
788.3  4458.75
788.2  4430
788.1  4402.5
788  4395
787.9  4513.75
787.8  4457.5
787.7  4315
787.6  4460
787.5  4422.5
787.4  4437.5
787.3  4382.5
787.2  4503.75
787.1  4628.75
787  4426.25
786.9  4461.25
786.8  4440
786.7  4510
786.6  4288.75
786.5  4456.25
786.4  4396.25
786.3  4465
786.2  4422.5
786.1  4511.25
786  4545
785.9  4577.5
785.8  4470
785.7  4413.75
785.6  4487.5
785.5  4403.75
785.4  4462.5
785.3  4536.25
785.2  4528.75
785.1  4446.25
785  4526.25
784.9  4482.5
784.8  4470
784.7  4528.75
784.6  4427.5
784.5  4363.75
784.4  4482.5
784.3  4495
784.2  4511.25
784.1  4587.5
784  4565
783.9  4472.5
783.8  4406.25
783.7  4475
783.6  4492.5
783.5  4486.25
783.4  4446.25
783.3  4498.75
783.2  4496.25
783.1  4550
783  4375
782.9  4557.5
782.8  4508.75
782.7  4547.5
782.6  4403.75
782.5  4480
782.4  4353.75
782.3  4588.75
782.2  4426.25
782.1  4533.75
782  4420
781.9  4407.5
781.8  4561.25
781.7  4585
781.6  4450
781.5  4405
781.4  4471.25
781.3  4555
781.2  4515
781.1  4521.25
781  4512.5
780.9  4437.5
780.8  4470
780.7  4490
780.6  4550
780.5  4551.25
780.4  4460
780.3  4298.75
780.2  4422.5
780.1  4610
780  4368.75
779.9  4588.75
779.8  4467.5
779.7  4517.5
779.6  4512.5
779.5  4378.75
779.4  4576.25
779.3  4446.25
779.2  4516.25
779.1  4388.75
779  4472.5
778.9  4248.75
778.8  4451.25
778.7  4562.5
778.6  4553.75
778.5  4338.75
778.4  4455
778.3  4448.75
778.2  4428.75
778.1  4533.75
778  4608.75
777.9  4411.25
777.8  4373.75
777.7  4347.5
777.6  4498.75
777.5  4563.75
777.4  4628.75
777.3  4468.75
777.2  4662.5
777.1  4463.75
777  4541.25

# Region:            Cl2p
# Acquisition Date:  09/15/22 11:01:46 UTC
# Analysis Method:   XPS
# Analyzer:          Phoibos 100 R6
# Analyzer Lens:     LargeArea:1.5kV
# Analyzer Slit:     1:0.2x20\B:open
# Scan Mode:         FixedAnalyzerTransmission
# Curves/Scan:       1
# Values/Curve:      111
# Dwell Time:        0.8
# Excitation Energy: 1486.61
# Binding Energy:    207
# Pass Energy:       30
# Bias Voltage:      90
# Detector Voltage:  2600
# Eff. Workfunction: 4.309
# Source:            X-Ray Dummy
# Comment:           
#
# Cycle: 0
# Number of Scans: 4
#
# Cycle: 0, Curve: 0
# Acquisition Date: 09/15/22 11:01:46 UTC
#
# ColumnLabels: energy counts/s
#
207  832.5
206.9  839.0625
206.8  858.4375
206.7  831.875
206.6  840.3125
206.5  870
206.4  876.5625
206.3  855.3125
206.2  865.625
206.1  860
206  844.375
205.9  870.9375
205.8  845.625
205.7  859.375
205.6  853.4375
205.5  864.6875
205.4  867.5
205.3  862.8125
205.2  840.3125
205.1  840.9375
205  858.4375
204.9  844.375
204.8  836.25
204.7  861.5625
204.6  835
204.5  861.875
204.4  857.1875
204.3  882.1875
204.2  848.4375
204.1  844.375
204  866.5625
203.9  852.5
203.8  840.9375
203.7  870.3125
203.6  835.3125
203.5  876.25
203.4  847.1875
203.3  835.3125
203.2  861.25
203.1  833.75
203  834.6875
202.9  845.9375
202.8  842.5
202.7  848.4375
202.6  841.25
202.5  866.25
202.4  861.25
202.3  860.9375
202.2  839.375
202.1  860.625
202  820.625
201.9  860
201.8  859.375
201.7  838.4375
201.6  855.625
201.5  870
201.4  867.8125
201.3  860.9375
201.2  868.125
201.1  883.4375
201  874.0625
200.9  887.1875
200.8  867.5
200.7  878.125
200.6  876.25
200.5  855.625
200.4  875.3125
200.3  869.0625
200.2  883.75
200.1  865
200  882.8125
199.9  877.5
199.8  876.5625
199.7  874.0625
199.6  882.1875
199.5  889.0625
199.4  863.75
199.3  913.75
199.2  862.5
199.1  874.6875
199  850.9375
198.9  864.375
198.8  890.625
198.7  860.625
198.6  858.125
198.5  854.0625
198.4  887.1875
198.3  890.625
198.2  870.9375
198.1  858.4375
198  872.5
197.9  874.6875
197.8  883.75
197.7  835.3125
197.6  871.5625
197.5  871.875
197.4  843.125
197.3  864.6875
197.2  856.5625
197.1  873.4375
197  860.3125
196.9  851.25
196.8  855.9375
196.7  844.375
196.6  829.0625
196.5  870
196.4  855.3125
196.3  858.75
196.2  837.5
196.1  822.8125
196  895.9375

# Group:             overview_HD
#
# Region:            overview
# Acquisition Date:  09/15/22 09:45:33 UTC
# Analysis Method:   XPS
# Analyzer:          Phoibos 100 R6
# Analyzer Lens:     LargeArea:1.5kV
# Analyzer Slit:     1:0.2x20\B:open
# Scan Mode:         FixedAnalyzerTransmission
# Curves/Scan:       1
# Values/Curve:      6021
# Dwell Time:        0.4
# Excitation Energy: 1486.61
# Binding Energy:    1200
# Pass Energy:       30
# Bias Voltage:      90
# Detector Voltage:  2600
# Eff. Workfunction: 4.309
# Source:            X-Ray Dummy
# Comment:           
#
# Cycle: 0
# Number of Scans: 1
#
# Cycle: 0, Curve: 0
# Acquisition Date: 09/15/22 09:45:33 UTC
#
# ColumnLabels: energy counts/s
#
1200  9440
1199.8  9577.5
1199.6  9495
1199.4  9240
1199.2  9742.5
1199  9242.5
1198.8  9647.5
1198.6  9380
1198.4  9522.5
1198.2  9335
1198  9342.5
1197.8  9325
1197.6  9695
1197.4  9490
1197.2  9432.5
1197  9935
1196.8  9540
1196.6  9397.5
1196.4  9442.5
1196.2  9687.5
1196  9640
1195.8  9777.5
1195.6  9387.5
1195.4  9240
1195.2  9425
1195  9585
1194.8  9722.5
1194.6  9565
1194.4  9805
1194.2  9470
1194  9652.5
1193.8  9355
1193.6  9580
1193.4  9460
1193.2  9622.5
1193  9612.5
1192.8  9577.5
1192.6  9597.5
1192.4  9545
1192.2  9425
1192  9675
1191.8  9490
1191.6  9797.5
1191.4  9457.5
1191.2  9585
1191  9320
1190.8  9537.5
1190.6  9575
1190.4  9755
1190.2  9902.5
1190  9650
1189.8  9567.5
1189.6  9345
1189.4  9352.5
1189.2  9240
1189  9105
1188.8  9350
1188.6  9557.5
1188.4  9587.5
1188.2  9477.5
1188  9265
1187.8  9472.5
1187.6  9362.5
1187.4  9092.5
1187.2  9155
1187  9322.5
1186.8  9067.5
1186.6  9277.5
1186.4  9357.5
1186.2  9175
1186  9297.5
1185.8  9467.5
1185.6  9212.5
1185.4  9332.5
1185.2  9295
1185  9135
1184.8  9117.5
1184.6  9057.5
1184.4  9465
1184.2  9100
1184  9285
1183.8  9302.5
1183.6  9142.5
1183.4  9060
1183.2  9207.5
1183  9212.5
1182.8  9457.5
1182.6  9187.5
1182.4  9097.5
1182.2  9317.5
1182  9262.5
1181.8  9030
1181.6  9250
1181.4  8607.5
1181.2  8960
1181  9002.5
1180.8  9125
1180.6  8920
1180.4  8737.5
1180.2  8975
1180  9077.5
1179.8  9262.5
1179.6  9025
1179.4  9175
1179.2  9355
1179  9022.5
1178.8  9087.5
1178.6  8772.5
1178.4  9002.5
1178.2  9050
1178  9132.5
1177.8  9150
1177.6  9112.5
1177.4  9192.5
1177.2  9265
1177  9007.5
1176.8  9090
1176.6  8847.5
1176.4  8790
1176.2  9072.5
1176  9170
1175.8  8962.5
1175.6  8972.5
1175.4  9077.5
1175.2  8975
1175  8937.5
1174.8  9057.5
1174.6  9125
1174.4  8927.5
1174.2  8955
1174  8790
1173.8  9065
1173.6  8955
1173.4  9172.5
1173.2  8905
1173  9177.5
1172.8  8990
1172.6  9127.5
1172.4  9355
1172.2  9180
1172  8895
1171.8  9360
1171.6  9260
1171.4  9037.5
1171.2  9067.5
1171  9240
1170.8  9212.5
1170.6  9220
1170.4  9065
1170.2  9292.5
1170  9142.5
1169.8  8882.5
1169.6  9032.5
1169.4  8790
1169.2  9097.5
1169  9332.5
1168.8  8870
1168.6  9047.5
1168.4  8977.5
1168.2  9147.5
1168  9060
1167.8  9280
1167.6  9232.5
1167.4  9060
1167.2  8900
1167  9390
1166.8  9262.5
1166.6  8992.5
1166.4  9135
1166.2  8987.5
1166  9037.5
1165.8  8957.5
1165.6  9330
1165.4  9122.5
1165.2  9292.5
1165  9227.5
1164.8  9122.5
1164.6  8795
1164.4  9312.5
1164.2  9185
1164  9110
1163.8  9200
1163.6  9360
1163.4  9045
1163.2  8992.5
1163  8995
1162.8  9160
1162.6  8845
1162.4  8947.5
1162.2  8855
1162  9110
1161.8  9410
1161.6  9107.5
1161.4  9320
1161.2  9140
1161  9267.5
1160.8  9237.5
1160.6  9510
1160.4  9520
1160.2  9185
1160  9222.5
1159.8  9262.5
1159.6  9150
1159.4  9257.5
1159.2  9202.5
1159  9280
1158.8  9082.5
1158.6  9105
1158.4  8860
1158.2  9052.5
1158  9202.5
1157.8  8847.5
1157.6  9040
1157.4  9080
1157.2  9257.5
1157  9297.5
1156.8  9432.5
1156.6  8995
1156.4  9237.5
1156.2  9052.5
1156  9367.5
1155.8  8837.5
1155.6  9280
1155.4  9182.5
1155.2  9337.5
1155  8945
1154.8  8925
1154.6  9207.5
1154.4  9275
1154.2  9102.5
1154  8940
1153.8  9275
1153.6  9237.5
1153.4  8997.5
1153.2  9217.5
1153  9285
1152.8  9042.5
1152.6  9302.5
1152.4  9157.5
1152.2  9045
1152  9062.5
1151.8  9147.5
1151.6  8912.5
1151.4  9015
1151.2  9220
1151  9067.5
1150.8  8970
1150.6  8852.5
1150.4  9305
1150.2  9062.5
1150  8990
1149.8  8882.5
1149.6  8955
1149.4  9077.5
1149.2  9005
1149  9017.5
1148.8  8925
1148.6  8975
1148.4  9320
1148.2  9107.5
1148  9067.5
1147.8  9122.5
1147.6  8845
1147.4  8855
1147.2  9072.5
1147  9167.5
1146.8  9057.5
1146.6  8995
1146.4  9087.5
1146.2  8862.5
1146  8937.5
1145.8  8892.5
1145.6  8932.5
1145.4  9050
1145.2  8822.5
1145  8772.5
1144.8  8725
1144.6  9020
1144.4  8902.5
1144.2  8892.5
1144  8745
1143.8  8632.5
1143.6  8615
1143.4  8857.5
1143.2  8742.5
1143  8600
1142.8  8872.5
1142.6  9010
1142.4  8912.5
1142.2  8817.5
1142  8765
1141.8  8327.5
1141.6  8657.5
1141.4  8770
1141.2  8472.5
1141  8532.5
1140.8  8642.5
1140.6  8565
1140.4  8252.5
1140.2  8680
1140  8537.5
1139.8  8210
1139.6  8485
1139.4  8300
1139.2  8235
1139  8477.5
1138.8  8410
1138.6  8560
1138.4  8365
1138.2  8390
1138  8167.5
1137.8  8230
1137.6  8085
1137.4  8097.5
1137.2  8405
1137  8075
1136.8  8132.5
1136.6  8040
1136.4  8220
1136.2  8200
1136  8010
1135.8  7997.5
1135.6  7882.5
1135.4  7717.5
1135.2  8155
1135  7892.5
1134.8  7852.5
1134.6  7962.5
1134.4  7832.5
1134.2  7702.5
1134  8147.5
1133.8  7890
1133.6  7895
1133.4  7810
1133.2  7832.5
1133  7717.5
1132.8  8012.5
1132.6  7847.5
1132.4  7867.5
1132.2  7552.5
1132  7722.5
1131.8  7875
1131.6  7842.5
1131.4  7910
1131.2  7812.5
1131  7730
1130.8  7942.5
1130.6  7645
1130.4  7702.5
1130.2  7750
1130  7910
1129.8  7662.5
1129.6  7782.5
1129.4  7635
1129.2  7610
1129  7432.5
1128.8  7915
1128.6  7657.5
1128.4  7427.5
1128.2  7835
1128  7922.5
1127.8  7737.5
1127.6  7620
1127.4  7647.5
1127.2  7697.5
1127  7777.5
1126.8  7872.5
1126.6  7847.5
1126.4  7527.5
1126.2  7457.5
1126  7592.5
1125.8  7460
1125.6  7760
1125.4  7452.5
1125.2  7662.5
1125  7662.5
1124.8  8017.5
1124.6  7567.5
1124.4  7495
1124.2  7940
1124  7410
1123.8  7655
1123.6  7835
1123.4  7655
1123.2  7735
1123  7525
1122.8  7735
1122.6  7612.5
1122.4  7940
1122.2  7717.5
1122  7652.5
1121.8  7837.5
1121.6  7572.5
1121.4  7670
1121.2  7697.5
1121  7390
1120.8  7997.5
1120.6  7587.5
1120.4  7900
1120.2  7592.5
1120  7485
1119.8  7832.5
1119.6  7552.5
1119.4  7567.5
1119.2  8020
1119  7752.5
1118.8  7692.5
1118.6  7760
1118.4  7730
1118.2  7782.5
1118  7707.5
1117.8  7940
1117.6  7572.5
1117.4  7592.5
1117.2  7757.5
1117  7607.5
1116.8  7760
1116.6  7740
1116.4  7662.5
1116.2  7902.5
1116  7810
1115.8  7842.5
1115.6  7875
1115.4  7562.5
1115.2  7677.5
1115  7845
1114.8  7497.5
1114.6  7627.5
1114.4  7870
1114.2  7840
1114  7940
1113.8  7975
1113.6  7957.5
1113.4  7757.5
1113.2  7775
1113  7815
1112.8  7815
1112.6  7785
1112.4  8027.5
1112.2  7722.5
1112  7822.5
1111.8  7767.5
1111.6  7930
1111.4  7857.5
1111.2  8177.5
1111  8032.5
1110.8  7902.5
1110.6  7865
1110.4  7567.5
1110.2  7687.5
1110  7847.5
1109.8  7775
1109.6  8082.5
1109.4  7780
1109.2  7847.5
1109  7762.5
1108.8  7580
1108.6  8025
1108.4  7872.5
1108.2  7987.5
1108  8100
1107.8  7670
1107.6  7815
1107.4  8055
1107.2  7765
1107  7960
1106.8  7660
1106.6  7765
1106.4  7857.5
1106.2  7722.5
1106  7962.5
1105.8  7970
1105.6  7702.5
1105.4  7992.5
1105.2  8132.5
1105  7712.5
1104.8  7907.5
1104.6  7820
1104.4  8067.5
1104.2  7757.5
1104  8025
1103.8  7810
1103.6  7912.5
1103.4  7870
1103.2  7835
1103  8112.5
1102.8  7957.5
1102.6  7877.5
1102.4  7967.5
1102.2  7935
1102  7970
1101.8  8057.5
1101.6  8202.5
1101.4  7977.5
1101.2  7877.5
1101  8262.5
1100.8  8045
1100.6  7765
1100.4  7882.5
1100.2  8035
1100  7757.5
1099.8  7985
1099.6  7702.5
1099.4  7947.5
1099.2  7857.5
1099  7767.5
1098.8  7802.5
1098.6  7700
1098.4  8020
1098.2  7745
1098  7990
1097.8  7962.5
1097.6  8127.5
1097.4  7937.5
1097.2  8042.5
1097  7740
1096.8  7805
1096.6  7987.5
1096.4  7872.5
1096.2  7990
1096  7525
1095.8  7980
1095.6  7895
1095.4  7982.5
1095.2  7975
1095  7867.5
1094.8  8077.5
1094.6  7630
1094.4  8000
1094.2  8050
1094  7717.5
1093.8  8010
1093.6  8060
1093.4  8220
1093.2  7997.5
1093  8195
1092.8  8477.5
1092.6  8365
1092.4  8340
1092.2  8187.5
1092  8542.5
1091.8  8215
1091.6  8540
1091.4  8260
1091.2  8485
1091  8617.5
1090.8  8737.5
1090.6  8692.5
1090.4  8925
1090.2  8665
1090  9065
1089.8  9172.5
1089.6  8885
1089.4  9052.5
1089.2  9632.5
1089  9467.5
1088.8  10015
1088.6  9892.5
1088.4  10017.5
1088.2  10302.5
1088  10260
1087.8  10507.5
1087.6  10660
1087.4  10942.5
1087.2  10890
1087  10885
1086.8  11110
1086.6  11125
1086.4  10820
1086.2  11070
1086  11137.5
1085.8  10710
1085.6  10895
1085.4  10515
1085.2  10435
1085  10555
1084.8  10150
1084.6  10107.5
1084.4  9847.5
1084.2  9520
1084  9500
1083.8  9630
1083.6  9442.5
1083.4  9035
1083.2  9015
1083  8942.5
1082.8  8882.5
1082.6  8512.5
1082.4  8830
1082.2  9067.5
1082  8645
1081.8  8680
1081.6  8705
1081.4  8790
1081.2  8970
1081  8912.5
1080.8  8745
1080.6  8815
1080.4  9070
1080.2  9140
1080  9057.5
1079.8  8815
1079.6  8935
1079.4  8992.5
1079.2  8707.5
1079  8660
1078.8  8745
1078.6  8717.5
1078.4  8572.5
1078.2  8365
1078  8272.5
1077.8  7837.5
1077.6  7705
1077.4  7592.5
1077.2  7207.5
1077  7267.5
1076.8  7075
1076.6  7097.5
1076.4  6655
1076.2  6825
1076  6845
1075.8  6707.5
1075.6  6895
1075.4  6605
1075.2  6480
1075  6407.5
1074.8  6282.5
1074.6  6365
1074.4  6232.5
1074.2  5925
1074  5867.5
1073.8  6120
1073.6  6242.5
1073.4  5962.5
1073.2  5950
1073  6047.5
1072.8  5947.5
1072.6  6132.5
1072.4  5982.5
1072.2  6167.5
1072  5925
1071.8  6007.5
1071.6  6082.5
1071.4  5975
1071.2  5982.5
1071  5940
1070.8  5917.5
1070.6  6380
1070.4  6097.5
1070.2  6160
1070  6117.5
1069.8  6275
1069.6  5785
1069.4  5937.5
1069.2  6225
1069  6095
1068.8  6212.5
1068.6  6137.5
1068.4  5817.5
1068.2  6255
1068  6167.5
1067.8  6337.5
1067.6  6200
1067.4  5992.5
1067.2  6180
1067  6142.5
1066.8  6070
1066.6  6047.5
1066.4  6035
1066.2  6257.5
1066  6092.5
1065.8  6292.5
1065.6  6132.5
1065.4  6220
1065.2  6130
1065  6167.5
1064.8  6040
1064.6  6037.5
1064.4  6057.5
1064.2  6035
1064  6092.5
1063.8  6010
1063.6  5865
1063.4  6097.5
1063.2  6112.5
1063  5925
1062.8  6022.5
1062.6  6092.5
1062.4  6027.5
1062.2  6027.5
1062  5867.5
1061.8  6000
1061.6  5977.5
1061.4  6047.5
1061.2  5885
1061  6212.5
1060.8  6090
1060.6  6177.5
1060.4  5850
1060.2  6232.5
1060  6200
1059.8  6167.5
1059.6  5895
1059.4  6122.5
1059.2  6077.5
1059  5907.5
1058.8  6105
1058.6  5812.5
1058.4  5910
1058.2  5895
1058  5625
1057.8  5747.5
1057.6  5655
1057.4  5912.5
1057.2  5840
1057  5780
1056.8  5822.5
1056.6  5655
1056.4  5655
1056.2  5650
1056  5705
1055.8  5882.5
1055.6  5660
1055.4  5657.5
1055.2  5475
1055  5687.5
1054.8  5455
1054.6  5875
1054.4  5747.5
1054.2  5580
1054  5527.5
1053.8  5642.5
1053.6  5880
1053.4  5697.5
1053.2  5645
1053  5812.5
1052.8  5715
1052.6  5690
1052.4  5485
1052.2  5622.5
1052  5835
1051.8  5750
1051.6  5520
1051.4  5652.5
1051.2  5620
1051  5497.5
1050.8  5422.5
1050.6  5472.5
1050.4  5385
1050.2  5470
1050  5550
1049.8  5565
1049.6  5452.5
1049.4  5327.5
1049.2  5452.5
1049  5542.5
1048.8  5580
1048.6  5322.5
1048.4  5612.5
1048.2  5287.5
1048  5655
1047.8  5512.5
1047.6  5597.5
1047.4  5190
1047.2  5322.5
1047  5112.5
1046.8  5480
1046.6  5532.5
1046.4  5427.5
1046.2  5447.5
1046  5432.5
1045.8  5287.5
1045.6  5437.5
1045.4  5482.5
1045.2  5527.5
1045  5565
1044.8  5455
1044.6  5410
1044.4  5367.5
1044.2  5377.5
1044  5497.5
1043.8  5472.5
1043.6  5465
1043.4  5420
1043.2  5422.5
1043  5327.5
1042.8  5500
1042.6  5465
1042.4  5485
1042.2  5270
1042  5585
1041.8  5472.5
1041.6  5520
1041.4  5322.5
1041.2  5432.5
1041  5392.5
1040.8  5467.5
1040.6  5267.5
1040.4  5325
1040.2  5420
1040  5265
1039.8  5417.5
1039.6  5342.5
1039.4  5445
1039.2  5405
1039  5367.5
1038.8  5467.5
1038.6  5540
1038.4  5350
1038.2  5340
1038  5382.5
1037.8  5500
1037.6  5542.5
1037.4  5460
1037.2  5330
1037  5192.5
1036.8  5532.5
1036.6  5747.5
1036.4  5387.5
1036.2  5455
1036  5597.5
1035.8  5267.5
1035.6  5387.5
1035.4  5220
1035.2  5337.5
1035  5405
1034.8  5442.5
1034.6  5335
1034.4  5505
1034.2  5217.5
1034  5130
1033.8  5492.5
1033.6  5237.5
1033.4  5565
1033.2  5455
1033  5525
1032.8  5365
1032.6  5652.5
1032.4  5557.5
1032.2  5390
1032  5362.5
1031.8  5430
1031.6  5685
1031.4  5380
1031.2  5475
1031  5330
1030.8  5580
1030.6  5732.5
1030.4  5455
1030.2  5550
1030  5270
1029.8  5305
1029.6  5580
1029.4  5317.5
1029.2  5332.5
1029  5552.5
1028.8  5485
1028.6  5327.5
1028.4  5472.5
1028.2  5357.5
1028  5300
1027.8  5190
1027.6  5470
1027.4  5402.5
1027.2  5490
1027  5380
1026.8  5332.5
1026.6  5370
1026.4  5332.5
1026.2  5362.5
1026  5657.5
1025.8  5540
1025.6  5472.5
1025.4  5200
1025.2  5392.5
1025  5452.5
1024.8  5480
1024.6  5450
1024.4  5522.5
1024.2  5407.5
1024  5425
1023.8  5532.5
1023.6  5187.5
1023.4  5275
1023.2  5412.5
1023  5397.5
1022.8  5470
1022.6  5472.5
1022.4  5347.5
1022.2  5347.5
1022  5467.5
1021.8  5640
1021.6  5517.5
1021.4  5267.5
1021.2  5462.5
1021  5355
1020.8  5445
1020.6  5262.5
1020.4  5292.5
1020.2  5295
1020  5440
1019.8  5160
1019.6  5175
1019.4  5582.5
1019.2  5530
1019  5322.5
1018.8  5480
1018.6  5482.5
1018.4  5492.5
1018.2  5547.5
1018  5367.5
1017.8  5685
1017.6  5530
1017.4  5352.5
1017.2  5497.5
1017  5525
1016.8  5400
1016.6  5632.5
1016.4  5615
1016.2  5492.5
1016  5415
1015.8  5362.5
1015.6  5372.5
1015.4  5325
1015.2  5270
1015  5457.5
1014.8  5520
1014.6  5467.5
1014.4  5437.5
1014.2  5737.5
1014  5392.5
1013.8  5452.5
1013.6  5435
1013.4  5362.5
1013.2  5560
1013  5375
1012.8  5447.5
1012.6  5255
1012.4  5440
1012.2  5380
1012  5290
1011.8  5387.5
1011.6  5532.5
1011.4  5620
1011.2  5527.5
1011  5417.5
1010.8  5500
1010.6  5420
1010.4  5382.5
1010.2  5570
1010  5412.5
1009.8  5355
1009.6  5450
1009.4  5402.5
1009.2  5362.5
1009  5445
1008.8  5297.5
1008.6  5645
1008.4  5402.5
1008.2  5397.5
1008  5410
1007.8  5432.5
1007.6  5367.5
1007.4  5380
1007.2  5505
1007  5385
1006.8  5277.5
1006.6  5365
1006.4  5372.5
1006.2  5480
1006  5502.5
1005.8  5295
1005.6  5247.5
1005.4  5547.5
1005.2  5250
1005  5357.5
1004.8  5382.5
1004.6  5305
1004.4  5467.5
1004.2  5532.5
1004  5250
1003.8  5372.5
1003.6  5452.5
1003.4  5320
1003.2  5587.5
1003  5252.5
1002.8  5432.5
1002.6  5765
1002.4  5465
1002.2  5510
1002  5467.5
1001.8  5372.5
1001.6  5502.5
1001.4  5375
1001.2  5515
1001  5602.5
1000.8  5585
1000.6  5372.5
1000.4  5452.5
1000.2  5487.5
1000  5435
999.8  5442.5
999.6  5380
999.4  5575
999.2  5645
999  5682.5
998.8  5685
998.6  5822.5
998.4  5647.5
998.2  5647.5
998  5372.5
997.8  5645
997.6  5562.5
997.4  5402.5
997.2  5510
997  5650
996.8  5777.5
996.6  5587.5
996.4  5592.5
996.2  5697.5
996  5687.5
995.8  5557.5
995.6  5620
995.4  5737.5
995.2  5712.5
995  5810
994.8  5607.5
994.6  5742.5
994.4  5805
994.2  5687.5
994  5660
993.8  5465
993.6  5652.5
993.4  5755
993.2  5572.5
993  5417.5
992.8  5657.5
992.6  5565
992.4  5580
992.2  5472.5
992  5567.5
991.8  5397.5
991.6  5597.5
991.4  5620
991.2  5380
991  5457.5
990.8  5437.5
990.6  5540
990.4  5232.5
990.2  5472.5
990  5580
989.8  5215
989.6  5500
989.4  5437.5
989.2  5490
989  5597.5
988.8  5462.5
988.6  5347.5
988.4  5387.5
988.2  5447.5
988  5330
987.8  5472.5
987.6  5575
987.4  5397.5
987.2  5392.5
987  5265
986.8  5450
986.6  5360
986.4  5460
986.2  5155
986  5367.5
985.8  5365
985.6  5400
985.4  5405
985.2  5322.5
985  5277.5
984.8  5347.5
984.6  5470
984.4  5402.5
984.2  5495
984  5275
983.8  5157.5
983.6  5382.5
983.4  5407.5
983.2  5362.5
983  5365
982.8  5362.5
982.6  5377.5
982.4  5457.5
982.2  5447.5
982  5240
981.8  5330
981.6  5430
981.4  5245
981.2  5387.5
981  5395
980.8  5397.5
980.6  5227.5
980.4  5122.5
980.2  5447.5
980  5287.5
979.8  5207.5
979.6  5170
979.4  5425
979.2  5517.5
979  5305
978.8  5300
978.6  5445
978.4  5657.5
978.2  5487.5
978  5785
977.8  5802.5
977.6  5482.5
977.4  5800
977.2  5702.5
977  5770
976.8  6107.5
976.6  5972.5
976.4  6100
976.2  6052.5
976  6125
975.8  6295
975.6  6267.5
975.4  6222.5
975.2  6560
975  6340
974.8  6215
974.6  6270
974.4  6577.5
974.2  6002.5
974  6092.5
973.8  5927.5
973.6  5742.5
973.4  5805
973.2  5857.5
973  5745
972.8  5750
972.6  5555
972.4  5547.5
972.2  5707.5
972  5592.5
971.8  5577.5
971.6  5312.5
971.4  5395
971.2  5742.5
971  5432.5
970.8  5332.5
970.6  5355
970.4  5405
970.2  5430
970  5332.5
969.8  5117.5
969.6  5207.5
969.4  5385
969.2  5230
969  5042.5
968.8  5152.5
968.6  5232.5
968.4  5237.5
968.2  5187.5
968  5185
967.8  5172.5
967.6  5145
967.4  5100
967.2  5017.5
967  5040
966.8  4967.5
966.6  5117.5
966.4  4867.5
966.2  4935
966  4950
965.8  4932.5
965.6  4975
965.4  4897.5
965.2  5035
965  4800
964.8  4957.5
964.6  4710
964.4  4815
964.2  4705
964  4942.5
963.8  4745
963.6  4925
963.4  4807.5
963.2  4920
963  5092.5
962.8  5042.5
962.6  4765
962.4  4770
962.2  4867.5
962  4722.5
961.8  4802.5
961.6  5147.5
961.4  4827.5
961.2  4612.5
961  4670
960.8  4877.5
960.6  4695
960.4  5010
960.2  4880
960  4832.5
959.8  4727.5
959.6  4887.5
959.4  4845
959.2  4800
959  4880
958.8  4820
958.6  4845
958.4  4970
958.2  4730
958  4847.5
957.8  4752.5
957.6  4685
957.4  4925
957.2  5035
957  4862.5
956.8  4852.5
956.6  4607.5
956.4  4625
956.2  5080
956  4815
955.8  4745
955.6  4862.5
955.4  4605
955.2  4820
955  5015
954.8  4642.5
954.6  4845
954.4  4930
954.2  4900
954  4732.5
953.8  4870
953.6  4800
953.4  4915
953.2  4812.5
953  4812.5
952.8  4845
952.6  4857.5
952.4  4587.5
952.2  5007.5
952  4792.5
951.8  4722.5
951.6  4800
951.4  4765
951.2  4855
951  4797.5
950.8  4977.5
950.6  4987.5
950.4  4797.5
950.2  4887.5
950  4817.5
949.8  4775
949.6  4852.5
949.4  4877.5
949.2  4630
949  4802.5
948.8  4997.5
948.6  4942.5
948.4  4667.5
948.2  4970
948  4607.5
947.8  4805
947.6  4982.5
947.4  4920
947.2  4840
947  4967.5
946.8  4857.5
946.6  4935
946.4  4780
946.2  5025
946  4802.5
945.8  4737.5
945.6  4912.5
945.4  4697.5
945.2  4880
945  4727.5
944.8  5027.5
944.6  4967.5
944.4  4740
944.2  4837.5
944  4790
943.8  4935
943.6  4695
943.4  4942.5
943.2  4682.5
943  4832.5
942.8  4850
942.6  4740
942.4  4790
942.2  5062.5
942  4682.5
941.8  5087.5
941.6  4957.5
941.4  4917.5
941.2  4807.5
941  4707.5
940.8  4970
940.6  4875
940.4  4840
940.2  4960
940  4790
939.8  4775
939.6  4885
939.4  4590
939.2  4505
939  4817.5
938.8  4667.5
938.6  4782.5
938.4  4762.5
938.2  4860
938  4842.5
937.8  4835
937.6  4720
937.4  4767.5
937.2  4572.5
937  4857.5
936.8  4795
936.6  4580
936.4  4855
936.2  5072.5
936  4947.5
935.8  4757.5
935.6  4790
935.4  4800
935.2  4937.5
935  5070
934.8  4807.5
934.6  4835
934.4  4800
934.2  4915
934  4695
933.8  4695
933.6  4872.5
933.4  4805
933.2  4900
933  4930
932.8  4982.5
932.6  4722.5
932.4  4995
932.2  4860
932  4890
931.8  4700
931.6  4655
931.4  4927.5
931.2  4685
931  4775
930.8  4625
930.6  4867.5
930.4  4770
930.2  4752.5
930  4865
929.8  4890
929.6  4867.5
929.4  4665
929.2  4855
929  4900
928.8  4885
928.6  4952.5
928.4  4887.5
928.2  4822.5
928  4862.5
927.8  4880
927.6  4750
927.4  5047.5
927.2  5042.5
927  4927.5
926.8  4827.5
926.6  4695
926.4  4745
926.2  4640
926  4902.5
925.8  4790
925.6  4757.5
925.4  4727.5
925.2  4877.5
925  4812.5
924.8  4890
924.6  4757.5
924.4  4675
924.2  4997.5
924  4872.5
923.8  4687.5
923.6  4855
923.4  4782.5
923.2  4780
923  4812.5
922.8  4557.5
922.6  4920
922.4  5017.5
922.2  4807.5
922  4570
921.8  4742.5
921.6  4707.5
921.4  4845
921.2  4792.5
921  4942.5
920.8  4612.5
920.6  4932.5
920.4  4852.5
920.2  4962.5
920  4665
919.8  4677.5
919.6  4820
919.4  4942.5
919.2  4600
919  4777.5
918.8  4780
918.6  4880
918.4  4660
918.2  4592.5
918  4712.5
917.8  4847.5
917.6  4650
917.4  4802.5
917.2  4715
917  4817.5
916.8  4812.5
916.6  4675
916.4  4855
916.2  4750
916  4765
915.8  4702.5
915.6  4877.5
915.4  4820
915.2  4867.5
915  4672.5
914.8  4945
914.6  4792.5
914.4  4855
914.2  4957.5
914  4522.5
913.8  4770
913.6  4745
913.4  4800
913.2  4617.5
913  4747.5
912.8  5010
912.6  4800
912.4  4647.5
912.2  4952.5
912  4630
911.8  4670
911.6  4877.5
911.4  4630
911.2  4815
911  4665
910.8  5030
910.6  4880
910.4  4867.5
910.2  4770
910  4720
909.8  4810
909.6  4722.5
909.4  4747.5
909.2  4742.5
909  4710
908.8  4887.5
908.6  4920
908.4  5007.5
908.2  4885
908  4917.5
907.8  4847.5
907.6  4720
907.4  4752.5
907.2  4850
907  4885
906.8  4867.5
906.6  4900
906.4  4845
906.2  4570
906  5070
905.8  4917.5
905.6  4692.5
905.4  4947.5
905.2  4875
905  4702.5
904.8  4732.5
904.6  4805
904.4  4885
904.2  4670
904  5037.5
903.8  4650
903.6  4667.5
903.4  4542.5
903.2  4807.5
903  4730
902.8  4907.5
902.6  4902.5
902.4  4805
902.2  4687.5
902  4795
901.8  4942.5
901.6  4800
901.4  4525
901.2  4762.5
901  4792.5
900.8  5130
900.6  4842.5
900.4  4905
900.2  4690
900  4872.5
899.8  4865
899.6  4787.5
899.4  4730
899.2  4892.5
899  4770
898.8  5007.5
898.6  4792.5
898.4  4762.5
898.2  4940
898  4720
897.8  4922.5
897.6  4735
897.4  4807.5
897.2  4900
897  4842.5
896.8  4817.5
896.6  4697.5
896.4  4795
896.2  4742.5
896  4827.5
895.8  4832.5
895.6  4777.5
895.4  4935
895.2  4880
895  4877.5
894.8  4715
894.6  4627.5
894.4  4992.5
894.2  4837.5
894  4772.5
893.8  4752.5
893.6  4642.5
893.4  4760
893.2  4837.5
893  4882.5
892.8  4855
892.6  4835
892.4  4617.5
892.2  4672.5
892  4680
891.8  4840
891.6  4972.5
891.4  4707.5
891.2  4690
891  4980
890.8  4865
890.6  4670
890.4  4617.5
890.2  4855
890  4680
889.8  4702.5
889.6  4877.5
889.4  4760
889.2  4957.5
889  4837.5
888.8  4800
888.6  4962.5
888.4  4577.5
888.2  4635
888  4767.5
887.8  4860
887.6  4557.5
887.4  4797.5
887.2  4805
887  4932.5
886.8  4842.5
886.6  4870
886.4  4652.5
886.2  4650
886  4545
885.8  4597.5
885.6  4915
885.4  4867.5
885.2  4702.5
885  4742.5
884.8  4567.5
884.6  4772.5
884.4  4760
884.2  4822.5
884  4942.5
883.8  4682.5
883.6  4815
883.4  4815
883.2  4740
883  4615
882.8  4815
882.6  4675
882.4  4867.5
882.2  4795
882  4900
881.8  4790
881.6  4755
881.4  4782.5
881.2  4662.5
881  4710
880.8  4812.5
880.6  4737.5
880.4  4622.5
880.2  4770
880  4867.5
879.8  4782.5
879.6  4690
879.4  4732.5
879.2  4805
879  4602.5
878.8  4700
878.6  4725
878.4  4852.5
878.2  4732.5
878  4647.5
877.8  4642.5
877.6  4802.5
877.4  4685
877.2  4690
877  4757.5
876.8  4777.5
876.6  4812.5
876.4  4822.5
876.2  4745
876  4595
875.8  4902.5
875.6  4805
875.4  4590
875.2  4685
875  4690
874.8  4760
874.6  4812.5
874.4  4700
874.2  4672.5
874  4660
873.8  4900
873.6  4692.5
873.4  4717.5
873.2  4855
873  4832.5
872.8  4750
872.6  4652.5
872.4  4847.5
872.2  4777.5
872  4470
871.8  4642.5
871.6  4645
871.4  4700
871.2  4710
871  4867.5
870.8  4707.5
870.6  4822.5
870.4  4727.5
870.2  4615
870  4595
869.8  4675
869.6  4752.5
869.4  4847.5
869.2  4792.5
869  4752.5
868.8  4637.5
868.6  4677.5
868.4  4857.5
868.2  4665
868  4745
867.8  4657.5
867.6  4652.5
867.4  4865
867.2  4815
867  4520
866.8  4780
866.6  4792.5
866.4  4662.5
866.2  4610
866  4557.5
865.8  4787.5
865.6  4595
865.4  4587.5
865.2  4772.5
865  4640
864.8  4615
864.6  4640
864.4  4770
864.2  4797.5
864  4842.5
863.8  4702.5
863.6  4637.5
863.4  4752.5
863.2  4920
863  4727.5
862.8  4890
862.6  4780
862.4  4745
862.2  4635
862  4730
861.8  4910
861.6  4635
861.4  4785
861.2  4652.5
861  4570
860.8  4757.5
860.6  4680
860.4  4815
860.2  4550
860  4850
859.8  4700
859.6  4762.5
859.4  4675
859.2  4872.5
859  4727.5
858.8  4562.5
858.6  4790
858.4  4757.5
858.2  4882.5
858  4705
857.8  4902.5
857.6  4675
857.4  4720
857.2  4722.5
857  4710
856.8  4760
856.6  4612.5
856.4  4675
856.2  4772.5
856  4737.5
855.8  5020
855.6  4710
855.4  4712.5
855.2  4810
855  4692.5
854.8  4985
854.6  4667.5
854.4  4905
854.2  4850
854  4487.5
853.8  4690
853.6  4810
853.4  4775
853.2  4605
853  4897.5
852.8  4540
852.6  4920
852.4  4755
852.2  4757.5
852  4735
851.8  4765
851.6  4765
851.4  4670
851.2  4910
851  4862.5
850.8  4530
850.6  4810
850.4  4765
850.2  4672.5
850  4815
849.8  4740
849.6  4542.5
849.4  4755
849.2  4757.5
849  4785
848.8  4692.5
848.6  4877.5
848.4  4830
848.2  4787.5
848  4480
847.8  4950
847.6  4835
847.4  4547.5
847.2  4695
847  4660
846.8  4962.5
846.6  4847.5
846.4  4710
846.2  4790
846  4847.5
845.8  4725
845.6  4755
845.4  4672.5
845.2  4790
845  4807.5
844.8  4770
844.6  4820
844.4  4752.5
844.2  4830
844  4687.5
843.8  4860
843.6  4712.5
843.4  4662.5
843.2  4787.5
843  4832.5
842.8  4825
842.6  4655
842.4  4615
842.2  4722.5
842  4820
841.8  4787.5
841.6  4627.5
841.4  4830
841.2  4822.5
841  4940
840.8  4900
840.6  4695
840.4  4817.5
840.2  4800
840  4790
839.8  4615
839.6  4680
839.4  4817.5
839.2  4612.5
839  4745
838.8  4657.5
838.6  4590
838.4  4875
838.2  4675
838  4680
837.8  4900
837.6  4770
837.4  4812.5
837.2  4895
837  4440
836.8  4872.5
836.6  4625
836.4  4785
836.2  4912.5
836  4835
835.8  4822.5
835.6  4825
835.4  4875
835.2  4852.5
835  4922.5
834.8  4792.5
834.6  4590
834.4  4722.5
834.2  4925
834  4797.5
833.8  4765
833.6  4992.5
833.4  4870
833.2  4815
833  4862.5
832.8  4670
832.6  4857.5
832.4  4852.5
832.2  5027.5
832  4932.5
831.8  5052.5
831.6  4902.5
831.4  4980
831.2  4855
831  4937.5
830.8  5102.5
830.6  5027.5
830.4  5075
830.2  4812.5
830  4970
829.8  5000
829.6  5020
829.4  4890
829.2  5115
829  5107.5
828.8  5082.5
828.6  5312.5
828.4  4862.5
828.2  5010
828  5270
827.8  5095
827.6  5190
827.4  5047.5
827.2  5087.5
827  4902.5
826.8  4860
826.6  4872.5
826.4  5112.5
826.2  5025
826  5050
825.8  4982.5
825.6  5042.5
825.4  4945
825.2  5042.5
825  4895
824.8  4910
824.6  4890
824.4  4795
824.2  4735
824  4897.5
823.8  4952.5
823.6  4915
823.4  4865
823.2  4932.5
823  4772.5
822.8  4840
822.6  4907.5
822.4  4837.5
822.2  4927.5
822  4780
821.8  4795
821.6  4775
821.4  4715
821.2  4735
821  4790
820.8  4767.5
820.6  4717.5
820.4  4772.5
820.2  4657.5
820  4610
819.8  4815
819.6  4822.5
819.4  4782.5
819.2  4680
819  4712.5
818.8  4835
818.6  4787.5
818.4  4805
818.2  4732.5
818  4627.5
817.8  4727.5
817.6  4740
817.4  4622.5
817.2  4417.5
817  4552.5
816.8  4525
816.6  4575
816.4  4542.5
816.2  4542.5
816  4665
815.8  4612.5
815.6  4702.5
815.4  4580
815.2  4797.5
815  4552.5
814.8  4452.5
814.6  4472.5
814.4  4455
814.2  4590
814  4600
813.8  4602.5
813.6  4637.5
813.4  4697.5
813.2  4507.5
813  4742.5
812.8  4597.5
812.6  4735
812.4  4632.5
812.2  4425
812  4565
811.8  4785
811.6  4545
811.4  4692.5
811.2  4610
811  4512.5
810.8  4657.5
810.6  4635
810.4  4727.5
810.2  4725
810  4582.5
809.8  4470
809.6  4522.5
809.4  4660
809.2  4657.5
809  4622.5
808.8  4307.5
808.6  4420
808.4  4640
808.2  4517.5
808  4677.5
807.8  4622.5
807.6  4440
807.4  4455
807.2  4405
807  4767.5
806.8  4572.5
806.6  4530
806.4  4555
806.2  4647.5
806  4585
805.8  4525
805.6  4400
805.4  4655
805.2  4505
805  4357.5
804.8  4477.5
804.6  4550
804.4  4680
804.2  4430
804  4497.5
803.8  4542.5
803.6  4505
803.4  4522.5
803.2  4562.5
803  4642.5
802.8  4480
802.6  4405
802.4  4392.5
802.2  4717.5
802  4472.5
801.8  4437.5
801.6  4497.5
801.4  4572.5
801.2  4650
801  4460
800.8  4737.5
800.6  4390
800.4  4330
800.2  4360
800  4367.5
799.8  4527.5
799.6  4562.5
799.4  4327.5
799.2  4492.5
799  4455
798.8  4585
798.6  4425
798.4  4685
798.2  4360
798  4525
797.8  4532.5
797.6  4545
797.4  4522.5
797.2  4562.5
797  4497.5
796.8  4477.5
796.6  4537.5
796.4  4557.5
796.2  4440
796  4645
795.8  4485
795.6  4622.5
795.4  4555
795.2  4567.5
795  4502.5
794.8  4340
794.6  4390
794.4  4462.5
794.2  4500
794  4445
793.8  4645
793.6  4342.5
793.4  4485
793.2  4492.5
793  4482.5
792.8  4622.5
792.6  4300
792.4  4447.5
792.2  4432.5
792  4500
791.8  4440
791.6  4395
791.4  4405
791.2  4652.5
791  4552.5
790.8  4470
790.6  4587.5
790.4  4617.5
790.2  4372.5
790  4497.5
789.8  4307.5
789.6  4427.5
789.4  4382.5
789.2  4550
789  4552.5
788.8  4517.5
788.6  4385
788.4  4375
788.2  4332.5
788  4395
787.8  4262.5
787.6  4297.5
787.4  4560
787.2  4325
787  4542.5
786.8  4312.5
786.6  4417.5
786.4  4395
786.2  4535
786  4500
785.8  4447.5
785.6  4440
785.4  4525
785.2  4437.5
785  4450
784.8  4777.5
784.6  4410
784.4  4647.5
784.2  4900
784  4522.5
783.8  4412.5
783.6  4502.5
783.4  4477.5
783.2  4497.5
783  4350
782.8  4375
782.6  4345
782.4  4452.5
782.2  4520
782  4620
781.8  4462.5
781.6  4547.5
781.4  4572.5
781.2  4622.5
781  4617.5
780.8  4552.5
780.6  4467.5
780.4  4397.5
780.2  4475
780  4395
779.8  4415
779.6  4352.5
779.4  4202.5
779.2  4407.5
779  4240
778.8  4487.5
778.6  4647.5
778.4  4525
778.2  4450
778  4460
777.8  4615
777.6  4487.5
777.4  4317.5
777.2  4477.5
777  4627.5
776.8  4477.5
776.6  4650
776.4  4535
776.2  4472.5
776  4365
775.8  4432.5
775.6  4495
775.4  4555
775.2  4422.5
775  4670
774.8  4462.5
774.6  4487.5
774.4  4267.5
774.2  4515
774  4417.5
773.8  4472.5
773.6  4705
773.4  4450
773.2  4555
773  4487.5
772.8  4447.5
772.6  4570
772.4  4435
772.2  4260
772  4367.5
771.8  4352.5
771.6  4270
771.4  4460
771.2  4450
771  4567.5
770.8  4650
770.6  4207.5
770.4  4410
770.2  4405
770  4350
769.8  4385
769.6  4522.5
769.4  4567.5
769.2  4410
769  4440
768.8  4582.5
768.6  4635
768.4  4505
768.2  4520
768  4355
767.8  4432.5
767.6  4770
767.4  4357.5
767.2  4387.5
767  4335
766.8  4290
766.6  4507.5
766.4  4527.5
766.2  4575
766  4320
765.8  4457.5
765.6  4522.5
765.4  4365
765.2  4467.5
765  4570
764.8  4540
764.6  4465
764.4  4500
764.2  4417.5
764  4517.5
763.8  4615
763.6  4467.5
763.4  4322.5
763.2  4562.5
763  4580
762.8  4410
762.6  4265
762.4  4517.5
762.2  4612.5
762  4542.5
761.8  4437.5
761.6  4465
761.4  4607.5
761.2  4610
761  4525
760.8  4465
760.6  4532.5
760.4  4570
760.2  4520
760  4365
759.8  4647.5
759.6  4770
759.4  4547.5
759.2  4695
759  4620
758.8  4707.5
758.6  4537.5
758.4  4562.5
758.2  4480
758  4782.5
757.8  4470
757.6  4570
757.4  4665
757.2  4600
757  4542.5
756.8  4620
756.6  4467.5
756.4  4547.5
756.2  4587.5
756  4577.5
755.8  4652.5
755.6  4372.5
755.4  4627.5
755.2  4625
755  4595
754.8  4442.5
754.6  4510
754.4  4537.5
754.2  4447.5
754  4422.5
753.8  4612.5
753.6  4655
753.4  4600
753.2  4582.5
753  4477.5
752.8  4412.5
752.6  4607.5
752.4  4410
752.2  4367.5
752  4502.5
751.8  4767.5
751.6  4482.5
751.4  4415
751.2  4325
751  4652.5
750.8  4507.5
750.6  4560
750.4  4490
750.2  4455
750  4200
749.8  4540
749.6  4257.5
749.4  4470
749.2  4310
749  4635
748.8  4365
748.6  4525
748.4  4417.5
748.2  4497.5
748  4372.5
747.8  4505
747.6  4447.5
747.4  4317.5
747.2  4655
747  4607.5
746.8  4480
746.6  4400
746.4  4385
746.2  4305
746  4362.5
745.8  4462.5
745.6  4410
745.4  4410
745.2  4550
745  4550
744.8  4450
744.6  4370
744.4  4457.5
744.2  4560
744  4640
743.8  4352.5
743.6  4620
743.4  4530
743.2  4635
743  4472.5
742.8  4420
742.6  4502.5
742.4  4545
742.2  4662.5
742  4710
741.8  4342.5
741.6  4715
741.4  4712.5
741.2  4615
741  4277.5
740.8  4487.5
740.6  4385
740.4  4450
740.2  4420
740  4500
739.8  4400
739.6  4535
739.4  4467.5
739.2  4515
739  4580
738.8  4312.5
738.6  4520
738.4  4387.5
738.2  4517.5
738  4380
737.8  4652.5
737.6  4620
737.4  4275
737.2  4617.5
737  4485
736.8  4307.5
736.6  4520
736.4  4670
736.2  4602.5
736  4455
735.8  4517.5
735.6  4377.5
735.4  4630
735.2  4522.5
735  4535
734.8  4630
734.6  4372.5
734.4  4615
734.2  4702.5
734  4452.5
733.8  4307.5
733.6  4355
733.4  4822.5
733.2  4330
733  4465
732.8  4442.5
732.6  4517.5
732.4  4835
732.2  4505
732  4577.5
731.8  4542.5
731.6  4357.5
731.4  4450
731.2  4635
731  4595
730.8  4427.5
730.6  4690
730.4  4562.5
730.2  4562.5
730  4655
729.8  4692.5
729.6  4667.5
729.4  4542.5
729.2  4500
729  4675
728.8  4400
728.6  4610
728.4  4490
728.2  4662.5
728  4542.5
727.8  4622.5
727.6  4655
727.4  4375
727.2  4657.5
727  4670
726.8  4600
726.6  4602.5
726.4  4457.5
726.2  4630
726  4665
725.8  4340
725.6  4327.5
725.4  4547.5
725.2  4405
725  4500
724.8  4722.5
724.6  4682.5
724.4  4430
724.2  4555
724  4742.5
723.8  4497.5
723.6  4697.5
723.4  4605
723.2  4727.5
723  4630
722.8  4702.5
722.6  4572.5
722.4  4702.5
722.2  4375
722  4602.5
721.8  4637.5
721.6  4692.5
721.4  4595
721.2  4652.5
721  4660
720.8  4487.5
720.6  4605
720.4  4717.5
720.2  4757.5
720  4575
719.8  4610
719.6  4645
719.4  4735
719.2  4715
719  4672.5
718.8  4775
718.6  4512.5
718.4  4820
718.2  4695
718  4700
717.8  4870
717.6  4805
717.4  4695
717.2  4712.5
717  4657.5
716.8  4712.5
716.6  4682.5
716.4  4860
716.2  4827.5
716  4695
715.8  4375
715.6  4772.5
715.4  4530
715.2  4410
715  4770
714.8  4435
714.6  4522.5
714.4  4385
714.2  4485
714  4395
713.8  4542.5
713.6  4447.5
713.4  4615
713.2  4462.5
713  4692.5
712.8  4645
712.6  4677.5
712.4  4830
712.2  4640
712  4512.5
711.8  4560
711.6  4495
711.4  4710
711.2  4402.5
711  4402.5
710.8  4515
710.6  4330
710.4  4527.5
710.2  4400
710  4647.5
709.8  4402.5
709.6  4667.5
709.4  4425
709.2  4730
709  4852.5
708.8  4610
708.6  4725
708.4  4697.5
708.2  4777.5
708  4845
707.8  4915
707.6  4860
707.4  5027.5
707.2  5037.5
707  5190
706.8  5112.5
706.6  5127.5
706.4  5525
706.2  5625
706  5882.5
705.8  5647.5
705.6  5840
705.4  5912.5
705.2  5900
705  5990
704.8  6022.5
704.6  6070
704.4  6137.5
704.2  6082.5
704  6002.5
703.8  5987.5
703.6  6000
703.4  5837.5
703.2  5567.5
703  5420
702.8  5345
702.6  5250
702.4  5230
702.2  5115
702  4870
701.8  4645
701.6  4735
701.4  4490
701.2  4410
701  4710
700.8  4607.5
700.6  4367.5
700.4  4340
700.2  4510
700  4395
699.8  4415
699.6  4557.5
699.4  4400
699.2  4385
699  4500
698.8  4455
698.6  4312.5
698.4  4465
698.2  4395
698  4492.5
697.8  4370
697.6  4232.5
697.4  4547.5
697.2  4232.5
697  4447.5
696.8  4505
696.6  4560
696.4  4337.5
696.2  4350
696  4350
695.8  4347.5
695.6  4435
695.4  4537.5
695.2  4492.5
695  4582.5
694.8  4432.5
694.6  4432.5
694.4  4387.5
694.2  4497.5
694  4327.5
693.8  4437.5
693.6  4345
693.4  4372.5
693.2  4135
693  4467.5
692.8  4370
692.6  4412.5
692.4  4400
692.2  4040
692  4032.5
691.8  4390
691.6  4197.5
691.4  4415
691.2  4337.5
691  4240
690.8  4280
690.6  4202.5
690.4  4185
690.2  4182.5
690  4395
689.8  4327.5
689.6  4275
689.4  4425
689.2  4320
689  4347.5
688.8  4190
688.6  4277.5
688.4  4127.5
688.2  4100
688  4195
687.8  4187.5
687.6  4147.5
687.4  4067.5
687.2  4235
687  4265
686.8  4120
686.6  4420
686.4  4372.5
686.2  4457.5
686  4292.5
685.8  4207.5
685.6  4282.5
685.4  4345
685.2  4325
685  4235
684.8  4207.5
684.6  4357.5
684.4  4525
684.2  4480
684  4257.5
683.8  4312.5
683.6  4170
683.4  4280
683.2  4362.5
683  4137.5
682.8  4245
682.6  4202.5
682.4  4395
682.2  4147.5
682  4155
681.8  4335
681.6  4035
681.4  4207.5
681.2  4177.5
681  4255
680.8  4265
680.6  4205
680.4  4242.5
680.2  4290
680  4202.5
679.8  4202.5
679.6  4077.5
679.4  4152.5
679.2  4127.5
679  4370
678.8  4365
678.6  4007.5
678.4  4227.5
678.2  4045
678  4225
677.8  4212.5
677.6  4240
677.4  4162.5
677.2  4242.5
677  4107.5
676.8  3962.5
676.6  3997.5
676.4  3957.5
676.2  4140
676  4055
675.8  4042.5
675.6  4230
675.4  3967.5
675.2  4085
675  3917.5
674.8  4010
674.6  4145
674.4  4207.5
674.2  4065
674  4207.5
673.8  4142.5
673.6  3927.5
673.4  4075
673.2  4162.5
673  4232.5
672.8  4152.5
672.6  4130
672.4  4110
672.2  4335
672  4185
671.8  4162.5
671.6  4385
671.4  4252.5
671.2  4262.5
671  4292.5
670.8  4475
670.6  4425
670.4  4392.5
670.2  4785
670  4592.5
669.8  4842.5
669.6  4892.5
669.4  5075
669.2  5512.5
669  5397.5
668.8  5652.5
668.6  5742.5
668.4  5885
668.2  6087.5
668  6440
667.8  6545
667.6  6755
667.4  7060
667.2  6955
667  7442.5
666.8  7145
666.6  7070
666.4  7310
666.2  7155
666  6890
665.8  6757.5
665.6  6565
665.4  6417.5
665.2  5952.5
665  5862.5
664.8  5720
664.6  5620
664.4  5185
664.2  4905
664  4857.5
663.8  4762.5
663.6  4580
663.4  4427.5
663.2  4480
663  4260
662.8  4157.5
662.6  4322.5
662.4  3982.5
662.2  4035
662  4117.5
661.8  3805
661.6  4100
661.4  3870
661.2  3857.5
661  3952.5
660.8  3972.5
660.6  3745
660.4  3657.5
660.2  3712.5
660  3785
659.8  3627.5
659.6  3730
659.4  3562.5
659.2  3700
659  3640
658.8  3757.5
658.6  3815
658.4  3682.5
658.2  3905
658  3897.5
657.8  3760
657.6  3782.5
657.4  3932.5
657.2  3930
657  3870
656.8  3760
656.6  3790
656.4  3772.5
656.2  3672.5
656  3792.5
655.8  3780
655.6  3765
655.4  3702.5
655.2  3780
655  3537.5
654.8  3615
654.6  3495
654.4  3577.5
654.2  3672.5
654  3762.5
653.8  3715
653.6  3540
653.4  3467.5
653.2  3482.5
653  3402.5
652.8  3685
652.6  3612.5
652.4  3410
652.2  3602.5
652  3417.5
651.8  3405
651.6  3545
651.4  3350
651.2  3385
651  3457.5
650.8  3520
650.6  3347.5
650.4  3362.5
650.2  3257.5
650  3487.5
649.8  3522.5
649.6  3577.5
649.4  3405
649.2  3330
649  3550
648.8  3370
648.6  3355
648.4  3340
648.2  3255
648  3445
647.8  3415
647.6  3460
647.4  3265
647.2  3385
647  3285
646.8  3447.5
646.6  3345
646.4  3380
646.2  3297.5
646  3412.5
645.8  3370
645.6  3240
645.4  3562.5
645.2  3357.5
645  3347.5
644.8  3367.5
644.6  3295
644.4  3360
644.2  3627.5
644  3655
643.8  3437.5
643.6  3457.5
643.4  3280
643.2  3467.5
643  3367.5
642.8  3255
642.6  3392.5
642.4  3497.5
642.2  3212.5
642  3412.5
641.8  3270
641.6  3370
641.4  3447.5
641.2  3205
641  3552.5
640.8  3310
640.6  3422.5
640.4  3285
640.2  3432.5
640  3400
639.8  3405
639.6  3357.5
639.4  3440
639.2  3297.5
639  3435
638.8  3112.5
638.6  3312.5
638.4  3382.5
638.2  3267.5
638  3305
637.8  3332.5
637.6  3402.5
637.4  3365
637.2  3262.5
637  3527.5
636.8  3290
636.6  3597.5
636.4  3537.5
636.2  3502.5
636  3477.5
635.8  3390
635.6  3400
635.4  3415
635.2  3540
635  3282.5
634.8  3437.5
634.6  3357.5
634.4  3325
634.2  3327.5
634  3307.5
633.8  3332.5
633.6  3552.5
633.4  3320
633.2  3410
633  3287.5
632.8  3255
632.6  3437.5
632.4  3280
632.2  3200
632  3220
631.8  3385
631.6  3267.5
631.4  3377.5
631.2  3427.5
631  3332.5
630.8  3397.5
630.6  3465
630.4  3267.5
630.2  3317.5
630  3225
629.8  3247.5
629.6  3190
629.4  3262.5
629.2  3220
629  3547.5
628.8  3462.5
628.6  3315
628.4  3335
628.2  3552.5
628  3347.5
627.8  3435
627.6  3440
627.4  3292.5
627.2  3295
627  3292.5
626.8  3235
626.6  3320
626.4  3275
626.2  3260
626  3335
625.8  3357.5
625.6  3355
625.4  3422.5
625.2  3285
625  3300
624.8  3285
624.6  3345
624.4  3332.5
624.2  3295
624  3342.5
623.8  3315
623.6  3262.5
623.4  3267.5
623.2  3255
623  3240
622.8  3300
622.6  3482.5
622.4  3297.5
622.2  3227.5
622  3357.5
621.8  3237.5
621.6  3180
621.4  3337.5
621.2  3250
621  3460
620.8  3282.5
620.6  3197.5
620.4  3312.5
620.2  3397.5
620  3307.5
619.8  3370
619.6  3337.5
619.4  3345
619.2  3292.5
619  3137.5
618.8  3222.5
618.6  3160
618.4  3367.5
618.2  3362.5
618  3152.5
617.8  3212.5
617.6  3152.5
617.4  3432.5
617.2  3375
617  3357.5
616.8  3222.5
616.6  3352.5
616.4  3262.5
616.2  3292.5
616  3457.5
615.8  3277.5
615.6  3322.5
615.4  3320
615.2  3242.5
615  3270
614.8  3480
614.6  3417.5
614.4  3392.5
614.2  3202.5
614  3222.5
613.8  3462.5
613.6  3375
613.4  3397.5
613.2  3280
613  3387.5
612.8  3285
612.6  3267.5
612.4  3350
612.2  3287.5
612  3295
611.8  3322.5
611.6  3085
611.4  3050
611.2  3247.5
611  3365
610.8  3127.5
610.6  3410
610.4  3325
610.2  3127.5
610  3460
609.8  3430
609.6  3182.5
609.4  3287.5
609.2  3315
609  3287.5
608.8  3275
608.6  3357.5
608.4  3375
608.2  3200
608  3235
607.8  3362.5
607.6  3272.5
607.4  3260
607.2  3252.5
607  3492.5
606.8  3162.5
606.6  3365
606.4  3227.5
606.2  3412.5
606  3300
605.8  3265
605.6  3312.5
605.4  3205
605.2  3362.5
605  3192.5
604.8  3255
604.6  3265
604.4  3300
604.2  3377.5
604  3252.5
603.8  3250
603.6  3265
603.4  3305
603.2  3357.5
603  3450
602.8  3327.5
602.6  3377.5
602.4  3402.5
602.2  3282.5
602  3415
601.8  3505
601.6  3332.5
601.4  3462.5
601.2  3252.5
601  3390
600.8  3332.5
600.6  3420
600.4  3147.5
600.2  3352.5
600  3320
599.8  3342.5
599.6  3372.5
599.4  3385
599.2  3457.5
599  3337.5
598.8  3340
598.6  3260
598.4  3307.5
598.2  3277.5
598  3322.5
597.8  3365
597.6  3255
597.4  3332.5
597.2  3410
597  3467.5
596.8  3542.5
596.6  3255
596.4  3237.5
596.2  3517.5
596  3377.5
595.8  3435
595.6  3462.5
595.4  3207.5
595.2  3192.5
595  3485
594.8  3375
594.6  3370
594.4  3292.5
594.2  3227.5
594  3242.5
593.8  3407.5
593.6  3302.5
593.4  3407.5
593.2  3262.5
593  3357.5
592.8  3252.5
592.6  3420
592.4  3317.5
592.2  3275
592  3327.5
591.8  3210
591.6  3425
591.4  3347.5
591.2  3200
591  3265
590.8  3345
590.6  3285
590.4  3420
590.2  3312.5
590  3395
589.8  3345
589.6  3325
589.4  3397.5
589.2  3152.5
589  3377.5
588.8  3380
588.6  3195
588.4  3330
588.2  3460
588  3432.5
587.8  3435
587.6  3300
587.4  3375
587.2  3232.5
587  3167.5
586.8  3322.5
586.6  3312.5
586.4  3375
586.2  3055
586  3352.5
585.8  3377.5
585.6  3242.5
585.4  3302.5
585.2  3307.5
585  3312.5
584.8  3295
584.6  3322.5
584.4  3342.5
584.2  3150
584  3440
583.8  3385
583.6  3400
583.4  3195
583.2  3402.5
583  3447.5
582.8  3375
582.6  3245
582.4  3317.5
582.2  3142.5
582  3352.5
581.8  3317.5
581.6  3422.5
581.4  3317.5
581.2  3337.5
581  3402.5
580.8  3367.5
580.6  3265
580.4  3282.5
580.2  3340
580  3380
579.8  3405
579.6  3225
579.4  3170
579.2  3242.5
579  3327.5
578.8  3270
578.6  3140
578.4  3085
578.2  3385
578  3320
577.8  3397.5
577.6  3227.5
577.4  3475
577.2  3482.5
577  3325
576.8  3377.5
576.6  3540
576.4  3402.5
576.2  3140
576  3380
575.8  3227.5
575.6  3362.5
575.4  3340
575.2  3317.5
575  3425
574.8  3557.5
574.6  3210
574.4  3247.5
574.2  3325
574  3375
573.8  3357.5
573.6  3417.5
573.4  3417.5
573.2  3127.5
573  3280
572.8  3372.5
572.6  3392.5
572.4  3465
572.2  3185
572  3192.5
571.8  3327.5
571.6  3165
571.4  3387.5
571.2  3292.5
571  3330
570.8  3302.5
570.6  3267.5
570.4  3075
570.2  3445
570  3532.5
569.8  3275
569.6  3297.5
569.4  3252.5
569.2  3342.5
569  3472.5
568.8  3525
568.6  3400
568.4  3200
568.2  3472.5
568  3177.5
567.8  3305
567.6  3312.5
567.4  3360
567.2  3407.5
567  3242.5
566.8  3340
566.6  3455
566.4  3252.5
566.2  3387.5
566  3387.5
565.8  3227.5
565.6  3245
565.4  3305
565.2  3275
565  3452.5
564.8  3202.5
564.6  3242.5
564.4  3215
564.2  3377.5
564  3400
563.8  3285
563.6  3382.5
563.4  3410
563.2  3487.5
563  3245
562.8  3350
562.6  3370
562.4  3440
562.2  3187.5
562  3477.5
561.8  3280
561.6  3202.5
561.4  3292.5
561.2  3247.5
561  3395
560.8  3382.5
560.6  3157.5
560.4  3427.5
560.2  3222.5
560  3170
559.8  3425
559.6  3310
559.4  3357.5
559.2  3417.5
559  3332.5
558.8  3440
558.6  3160
558.4  3452.5
558.2  3285
558  3410
557.8  3457.5
557.6  3405
557.4  3425
557.2  3267.5
557  3365
556.8  3300
556.6  3180
556.4  3540
556.2  3430
556  3522.5
555.8  3325
555.6  3405
555.4  3390
555.2  3522.5
555  3335
554.8  3377.5
554.6  3235
554.4  3315
554.2  3350
554  3435
553.8  3297.5
553.6  3605
553.4  3470
553.2  3250
553  3455
552.8  3445
552.6  3540
552.4  3335
552.2  3380
552  3270
551.8  3562.5
551.6  3470
551.4  3407.5
551.2  3272.5
551  3355
550.8  3592.5
550.6  3357.5
550.4  3402.5
550.2  3417.5
550  3532.5
549.8  3495
549.6  3435
549.4  3450
549.2  3592.5
549  3570
548.8  3670
548.6  3305
548.4  3475
548.2  3465
548  3525
547.8  3332.5
547.6  3480
547.4  3437.5
547.2  3485
547  3565
546.8  3565
546.6  3502.5
546.4  3510
546.2  3417.5
546  3202.5
545.8  3400
545.6  3367.5
545.4  3325
545.2  3455
545  3332.5
544.8  3260
544.6  3482.5
544.4  3412.5
544.2  3257.5
544  3272.5
543.8  3410
543.6  3267.5
543.4  3367.5
543.2  3412.5
543  3240
542.8  3185
542.6  3245
542.4  3097.5
542.2  3252.5
542  3487.5
541.8  3107.5
541.6  3215
541.4  3387.5
541.2  3232.5
541  3217.5
540.8  3157.5
540.6  3100
540.4  3250
540.2  3207.5
540  3242.5
539.8  3220
539.6  3260
539.4  3057.5
539.2  3127.5
539  3062.5
538.8  3252.5
538.6  3187.5
538.4  3220
538.2  3267.5
538  3107.5
537.8  3172.5
537.6  3937.5
537.4  3175
537.2  3177.5
537  3175
536.8  3152.5
536.6  3035
536.4  3210
536.2  3330
536  3307.5
535.8  3132.5
535.6  3190
535.4  3177.5
535.2  3387.5
535  3167.5
534.8  3280
534.6  3237.5
534.4  3347.5
534.2  3420
534  3547.5
533.8  3507.5
533.6  3792.5
533.4  3670
533.2  3857.5
533  3827.5
532.8  4045
532.6  4170
532.4  4470
532.2  4615
532  4785
531.8  5117.5
531.6  5532.5
531.4  5645
531.2  5675
531  5845
530.8  6147.5
530.6  5892.5
530.4  5540
530.2  5247.5
530  4710
529.8  4390
529.6  3940
529.4  3730
529.2  3650
529  3397.5
528.8  3305
528.6  3290
528.4  3220
528.2  3185
528  3047.5
527.8  3130
527.6  3137.5
527.4  3097.5
527.2  3175
527  2952.5
526.8  2937.5
526.6  3042.5
526.4  3127.5
526.2  2987.5
526  3097.5
525.8  3115
525.6  3075
525.4  3192.5
525.2  3135
525  3080
524.8  3190
524.6  3027.5
524.4  3087.5
524.2  3157.5
524  3117.5
523.8  2925
523.6  3147.5
523.4  3167.5
523.2  3280
523  3232.5
522.8  3087.5
522.6  3035
522.4  3235
522.2  3287.5
522  3170
521.8  3240
521.6  3170
521.4  3260
521.2  3315
521  3292.5
520.8  3152.5
520.6  3302.5
520.4  3292.5
520.2  3232.5
520  3067.5
519.8  3182.5
519.6  3300
519.4  3172.5
519.2  3117.5
519  3090
518.8  3030
518.6  3122.5
518.4  2982.5
518.2  3077.5
518  3270
517.8  3047.5
517.6  3067.5
517.4  3040
517.2  3015
517  3125
516.8  3060
516.6  3097.5
516.4  3202.5
516.2  3045
516  3125
515.8  3060
515.6  3090
515.4  2930
515.2  3080
515  2987.5
514.8  3030
514.6  3110
514.4  3032.5
514.2  3070
514  3015
513.8  2990
513.6  3125
513.4  2957.5
513.2  3082.5
513  3077.5
512.8  2945
512.6  2985
512.4  3097.5
512.2  3102.5
512  2900
511.8  3090
511.6  2992.5
511.4  3040
511.2  2872.5
511  3280
510.8  3097.5
510.6  3100
510.4  3122.5
510.2  3120
510  3012.5
509.8  3050
509.6  3055
509.4  3127.5
509.2  3097.5
509  3077.5
508.8  3182.5
508.6  3080
508.4  3177.5
508.2  3002.5
508  2880
507.8  2912.5
507.6  2982.5
507.4  3090
507.2  3032.5
507  3257.5
506.8  3047.5
506.6  3082.5
506.4  3192.5
506.2  3037.5
506  3030
505.8  3007.5
505.6  3077.5
505.4  3170
505.2  3082.5
505  3030
504.8  3067.5
504.6  3007.5
504.4  3087.5
504.2  3050
504  3020
503.8  3067.5
503.6  2922.5
503.4  3165
503.2  3070
503  3132.5
502.8  3067.5
502.6  3040
502.4  3107.5
502.2  2990
502  2967.5
501.8  3042.5
501.6  3085
501.4  3057.5
501.2  3042.5
501  3062.5
500.8  3055
500.6  2985
500.4  2997.5
500.2  2867.5
500  2805
499.8  2912.5
499.6  3012.5
499.4  2977.5
499.2  3030
499  2935
498.8  3095
498.6  3022.5
498.4  2897.5
498.2  2915
498  3025
497.8  3157.5
497.6  3182.5
497.4  3180
497.2  3177.5
497  3355
496.8  3227.5
496.6  3420
496.4  3292.5
496.2  3517.5
496  3597.5
495.8  3532.5
495.6  3495
495.4  3470
495.2  3537.5
495  3297.5
494.8  3362.5
494.6  3347.5
494.4  3227.5
494.2  3042.5
494  3242.5
493.8  3147.5
493.6  3010
493.4  3022.5
493.2  2867.5
493  3067.5
492.8  3100
492.6  2882.5
492.4  2967.5
492.2  3107.5
492  2962.5
491.8  2952.5
491.6  2997.5
491.4  2877.5
491.2  3117.5
491  2970
490.8  3010
490.6  3057.5
490.4  2970
490.2  3035
490  3097.5
489.8  3112.5
489.6  3100
489.4  3142.5
489.2  3342.5
489  3167.5
488.8  3442.5
488.6  3382.5
488.4  3385
488.2  3360
488  3527.5
487.8  3552.5
487.6  3555
487.4  3605
487.2  3642.5
487  3742.5
486.8  3745
486.6  3722.5
486.4  3590
486.2  3545
486  3337.5
485.8  3220
485.6  3230
485.4  3262.5
485.2  3150
485  3142.5
484.8  3075
484.6  3190
484.4  3025
484.2  2987.5
484  3052.5
483.8  3047.5
483.6  2950
483.4  2887.5
483.2  2985
483  2965
482.8  2942.5
482.6  2817.5
482.4  2982.5
482.2  3005
482  3050
481.8  3067.5
481.6  2992.5
481.4  2915
481.2  2917.5
481  3010
480.8  3042.5
480.6  3002.5
480.4  2912.5
480.2  2890
480  3000
479.8  2847.5
479.6  3047.5
479.4  3092.5
479.2  3040
479  3135
478.8  3015
478.6  3157.5
478.4  2972.5
478.2  3020
478  3075
477.8  3040
477.6  3017.5
477.4  3130
477.2  3355
477  3017.5
476.8  3180
476.6  3120
476.4  3000
476.2  3215
476  3182.5
475.8  3145
475.6  3265
475.4  3037.5
475.2  3085
475  3105
474.8  3062.5
474.6  3027.5
474.4  3087.5
474.2  3260
474  3067.5
473.8  3190
473.6  3160
473.4  3232.5
473.2  3277.5
473  3175
472.8  3482.5
472.6  3132.5
472.4  3027.5
472.2  3170
472  3080
471.8  3247.5
471.6  3312.5
471.4  3285
471.2  3135
471  3285
470.8  3200
470.6  3055
470.4  3302.5
470.2  3172.5
470  3175
469.8  3252.5
469.6  3240
469.4  3085
469.2  3277.5
469  3280
468.8  3360
468.6  3247.5
468.4  3342.5
468.2  3242.5
468  3230
467.8  3362.5
467.6  3150
467.4  3150
467.2  3237.5
467  3150
466.8  3137.5
466.6  3347.5
466.4  3265
466.2  3352.5
466  3315
465.8  3357.5
465.6  3157.5
465.4  3332.5
465.2  3202.5
465  3375
464.8  3280
464.6  3275
464.4  3210
464.2  3152.5
464  3172.5
463.8  3180
463.6  3205
463.4  3250
463.2  3152.5
463  3280
462.8  2987.5
462.6  3120
462.4  2997.5
462.2  2955
462  3157.5
461.8  2925
461.6  3122.5
461.4  3000
461.2  3110
461  2982.5
460.8  3115
460.6  2905
460.4  2850
460.2  2895
460  3092.5
459.8  2875
459.6  2892.5
459.4  2990
459.2  2872.5
459  2905
458.8  2772.5
458.6  2740
458.4  2817.5
458.2  2697.5
458  2685
457.8  2817.5
457.6  2717.5
457.4  2882.5
457.2  2887.5
457  2825
456.8  2957.5
456.6  2822.5
456.4  2842.5
456.2  3050
456  3157.5
455.8  3162.5
455.6  3437.5
455.4  3457.5
455.2  3995
455  4202.5
454.8  4485
454.6  5075
454.4  5445
454.2  6247.5
454  6950
453.8  7762.5
453.6  8817.5
453.4  9367.5
453.2  10292.5
453  10625
452.8  10622.5
452.6  10345
452.4  10100
452.2  8760
452  7595
451.8  6242.5
451.6  5127.5
451.4  4335
451.2  3482.5
451  3107.5
450.8  2812.5
450.6  2510
450.4  2542.5
450.2  2352.5
450  2437.5
449.8  2205
449.6  2252.5
449.4  2337.5
449.2  2335
449  2375
448.8  2360
448.6  2702.5
448.4  2715
448.2  2942.5
448  3115
447.8  3365
447.6  3802.5
447.4  4417.5
447.2  4737.5
447  5642.5
446.8  6807.5
446.6  7562.5
446.4  8865
446.2  9842.5
446  11237.5
445.8  12670
445.6  13235
445.4  13702.5
445.2  13827.5
445  13727.5
444.8  12410
444.6  10880
444.4  9002.5
444.2  7600
444  5827.5
443.8  4832.5
443.6  3850
443.4  3440
443.2  2912.5
443  2782.5
442.8  2475
442.6  2350
442.4  2252.5
442.2  2037.5
442  2095
441.8  1867.5
441.6  1780
441.4  1855
441.2  1677.5
441  1845
440.8  1685
440.6  1665
440.4  1555
440.2  1467.5
440  1390
439.8  1502.5
439.6  1385
439.4  1432.5
439.2  1337.5
439  1297.5
438.8  1242.5
438.6  1190
438.4  1327.5
438.2  1227.5
438  1292.5
437.8  1370
437.6  1272.5
437.4  1330
437.2  1362.5
437  1530
436.8  1505
436.6  1650
436.4  1702.5
436.2  1787.5
436  1827.5
435.8  1987.5
435.6  2072.5
435.4  2100
435.2  1992.5
435  1790
434.8  1930
434.6  1872.5
434.4  1777.5
434.2  1670
434  1605
433.8  1612.5
433.6  1565
433.4  1565
433.2  1672.5
433  1492.5
432.8  1360
432.6  1357.5
432.4  1202.5
432.2  1157.5
432  1285
431.8  1215
431.6  1115
431.4  1140
431.2  1025
431  1105
430.8  1045
430.6  1042.5
430.4  1042.5
430.2  1050
430  1045
429.8  1050
429.6  965
429.4  1007.5
429.2  1080
429  985
428.8  1030
428.6  1020
428.4  967.5
428.2  995
428  1052.5
427.8  962.5
427.6  982.5
427.4  985
427.2  1060
427  977.5
426.8  1015
426.6  1057.5
426.4  1100
426.2  1035
426  1035
425.8  900
425.6  970
425.4  1042.5
425.2  905
425  1020
424.8  1047.5
424.6  970
424.4  970
424.2  1007.5
424  1025
423.8  1062.5
423.6  972.5
423.4  930
423.2  1000
423  1075
422.8  965
422.6  995
422.4  932.5
422.2  865
422  925
421.8  1032.5
421.6  1112.5
421.4  907.5
421.2  930
421  995
420.8  1002.5
420.6  970
420.4  897.5
420.2  910
420  965
419.8  842.5
419.6  942.5
419.4  932.5
419.2  942.5
419  847.5
418.8  945
418.6  957.5
418.4  965
418.2  915
418  972.5
417.8  977.5
417.6  882.5
417.4  942.5
417.2  885
417  900
416.8  960
416.6  867.5
416.4  940
416.2  900
416  915
415.8  905
415.6  915
415.4  907.5
415.2  967.5
415  942.5
414.8  987.5
414.6  912.5
414.4  972.5
414.2  892.5
414  987.5
413.8  945
413.6  1025
413.4  920
413.2  922.5
413  905
412.8  942.5
412.6  965
412.4  975
412.2  925
412  937.5
411.8  995
411.6  877.5
411.4  965
411.2  970
411  882.5
410.8  877.5
410.6  930
410.4  892.5
410.2  857.5
410  925
409.8  952.5
409.6  925
409.4  900
409.2  1010
409  937.5
408.8  932.5
408.6  907.5
408.4  1015
408.2  925
408  880
407.8  942.5
407.6  987.5
407.4  877.5
407.2  915
407  985
406.8  982.5
406.6  920
406.4  1017.5
406.2  802.5
406  912.5
405.8  910
405.6  850
405.4  892.5
405.2  980
405  1035
404.8  890
404.6  942.5
404.4  927.5
404.2  915
404  977.5
403.8  880
403.6  870
403.4  1045
403.2  897.5
403  947.5
402.8  987.5
402.6  887.5
402.4  985
402.2  910
402  915
401.8  965
401.6  970
401.4  942.5
401.2  985
401  992.5
400.8  922.5
400.6  830
400.4  905
400.2  947.5
400  940
399.8  915
399.6  945
399.4  910
399.2  902.5
399  862.5
398.8  860
398.6  850
398.4  887.5
398.2  917.5
398  912.5
397.8  882.5
397.6  890
397.4  945
397.2  947.5
397  842.5
396.8  902.5
396.6  927.5
396.4  935
396.2  910
396  917.5
395.8  902.5
395.6  870
395.4  897.5
395.2  952.5
395  892.5
394.8  987.5
394.6  917.5
394.4  912.5
394.2  975
394  897.5
393.8  877.5
393.6  992.5
393.4  920
393.2  935
393  905
392.8  927.5
392.6  895
392.4  865
392.2  865
392  995
391.8  842.5
391.6  950
391.4  947.5
391.2  970
391  872.5
390.8  955
390.6  972.5
390.4  872.5
390.2  885
390  977.5
389.8  920
389.6  1025
389.4  897.5
389.2  837.5
389  910
388.8  872.5
388.6  912.5
388.4  935
388.2  897.5
388  942.5
387.8  877.5
387.6  857.5
387.4  902.5
387.2  982.5
387  922.5
386.8  830
386.6  870
386.4  902.5
386.2  942.5
386  937.5
385.8  987.5
385.6  932.5
385.4  977.5
385.2  937.5
385  927.5
384.8  1000
384.6  1007.5
384.4  972.5
384.2  920
384  935
383.8  1042.5
383.6  947.5
383.4  962.5
383.2  957.5
383  930
382.8  932.5
382.6  955
382.4  920
382.2  882.5
382  952.5
381.8  1017.5
381.6  1010
381.4  930
381.2  995
381  1035
380.8  957.5
380.6  990
380.4  930
380.2  962.5
380  922.5
379.8  957.5
379.6  1035
379.4  910
379.2  912.5
379  982.5
378.8  887.5
378.6  935
378.4  935
378.2  940
378  870
377.8  845
377.6  895
377.4  907.5
377.2  922.5
377  990
376.8  1007.5
376.6  957.5
376.4  1020
376.2  1005
376  940
375.8  1072.5
375.6  1015
375.4  1010
375.2  890
375  887.5
374.8  940
374.6  987.5
374.4  962.5
374.2  1010
374  945
373.8  920
373.6  947.5
373.4  912.5
373.2  1015
373  915
372.8  870
372.6  932.5
372.4  870
372.2  920
372  895
371.8  887.5
371.6  807.5
371.4  865
371.2  945
371  890
370.8  950
370.6  810
370.4  875
370.2  805
370  827.5
369.8  805
369.6  835
369.4  887.5
369.2  755
369  877.5
368.8  807.5
368.6  862.5
368.4  857.5
368.2  927.5
368  887.5
367.8  792.5
367.6  825
367.4  842.5
367.2  762.5
367  830
366.8  815
366.6  805
366.4  920
366.2  782.5
366  787.5
365.8  825
365.6  835
365.4  855
365.2  882.5
365  867.5
364.8  897.5
364.6  832.5
364.4  845
364.2  885
364  907.5
363.8  870
363.6  912.5
363.4  862.5
363.2  812.5
363  792.5
362.8  747.5
362.6  805
362.4  857.5
362.2  827.5
362  812.5
361.8  852.5
361.6  847.5
361.4  872.5
361.2  842.5
361  812.5
360.8  940
360.6  817.5
360.4  882.5
360.2  895
360  805
359.8  865
359.6  810
359.4  790
359.2  795
359  830
358.8  875
358.6  805
358.4  832.5
358.2  810
358  890
357.8  885
357.6  830
357.4  777.5
357.2  880
357  805
356.8  837.5
356.6  1157.5
356.4  765
356.2  815
356  855
355.8  882.5
355.6  840
355.4  890
355.2  865
355  792.5
354.8  787.5
354.6  875
354.4  897.5
354.2  850
354  852.5
353.8  862.5
353.6  810
353.4  907.5
353.2  807.5
353  875
352.8  870
352.6  850
352.4  840
352.2  810
352  825
351.8  872.5
351.6  830
351.4  805
351.2  827.5
351  837.5
350.8  805
350.6  835
350.4  872.5
350.2  890
350  835
349.8  827.5
349.6  980
349.4  825
349.2  872.5
349  897.5
348.8  800
348.6  755
348.4  820
348.2  860
348  840
347.8  862.5
347.6  867.5
347.4  895
347.2  825
347  845
346.8  827.5
346.6  867.5
346.4  870
346.2  847.5
346  892.5
345.8  775
345.6  802.5
345.4  852.5
345.2  792.5
345  845
344.8  850
344.6  847.5
344.4  870
344.2  945
344  932.5
343.8  840
343.6  855
343.4  850
343.2  895
343  892.5
342.8  945
342.6  807.5
342.4  800
342.2  922.5
342  835
341.8  885
341.6  780
341.4  787.5
341.2  842.5
341  930
340.8  857.5
340.6  812.5
340.4  770
340.2  800
340  820
339.8  795
339.6  935
339.4  870
339.2  822.5
339  822.5
338.8  792.5
338.6  890
338.4  857.5
338.2  892.5
338  937.5
337.8  845
337.6  835
337.4  827.5
337.2  880
337  787.5
336.8  877.5
336.6  880
336.4  877.5
336.2  907.5
336  857.5
335.8  822.5
335.6  890
335.4  857.5
335.2  787.5
335  822.5
334.8  880
334.6  787.5
334.4  770
334.2  815
334  840
333.8  855
333.6  897.5
333.4  865
333.2  900
333  887.5
332.8  845
332.6  852.5
332.4  827.5
332.2  840
332  900
331.8  890
331.6  760
331.4  860
331.2  887.5
331  847.5
330.8  877.5
330.6  837.5
330.4  782.5
330.2  832.5
330  947.5
329.8  815
329.6  880
329.4  965
329.2  955
329  865
328.8  760
328.6  862.5
328.4  850
328.2  905
328  892.5
327.8  852.5
327.6  855
327.4  810
327.2  882.5
327  840
326.8  842.5
326.6  942.5
326.4  820
326.2  845
326  832.5
325.8  890
325.6  852.5
325.4  942.5
325.2  845
325  832.5
324.8  807.5
324.6  792.5
324.4  787.5
324.2  862.5
324  857.5
323.8  900
323.6  947.5
323.4  950
323.2  840
323  892.5
322.8  860
322.6  787.5
322.4  912.5
322.2  902.5
322  870
321.8  855
321.6  880
321.4  812.5
321.2  895
321  912.5
320.8  900
320.6  900
320.4  832.5
320.2  860
320  855
319.8  930
319.6  862.5
319.4  822.5
319.2  905
319  892.5
318.8  915
318.6  892.5
318.4  892.5
318.2  905
318  850
317.8  855
317.6  812.5
317.4  850
317.2  920
317  805
316.8  837.5
316.6  887.5
316.4  847.5
316.2  850
316  950
315.8  897.5
315.6  767.5
315.4  732.5
315.2  837.5
315  817.5
314.8  900
314.6  925
314.4  897.5
314.2  792.5
314  905
313.8  782.5
313.6  840
313.4  867.5
313.2  907.5
313  890
312.8  840
312.6  935
312.4  862.5
312.2  820
312  817.5
311.8  815
311.6  877.5
311.4  795
311.2  805
311  825
310.8  867.5
310.6  865
310.4  840
310.2  877.5
310  840
309.8  802.5
309.6  837.5
309.4  827.5
309.2  815
309  825
308.8  760
308.6  775
308.4  870
308.2  920
308  892.5
307.8  895
307.6  935
307.4  895
307.2  835
307  922.5
306.8  947.5
306.6  830
306.4  877.5
306.2  825
306  830
305.8  815
305.6  860
305.4  900
305.2  857.5
305  817.5
304.8  875
304.6  812.5
304.4  892.5
304.2  830
304  782.5
303.8  837.5
303.6  875
303.4  787.5
303.2  795
303  932.5
302.8  835
302.6  920
302.4  855
302.2  937.5
302  877.5
301.8  887.5
301.6  832.5
301.4  825
301.2  897.5
301  932.5
300.8  852.5
300.6  930
300.4  845
300.2  905
300  790
299.8  862.5
299.6  810
299.4  855
299.2  810
299  932.5
298.8  785
298.6  910
298.4  792.5
298.2  857.5
298  780
297.8  795
297.6  820
297.4  862.5
297.2  897.5
297  857.5
296.8  797.5
296.6  775
296.4  867.5
296.2  855
296  790
295.8  887.5
295.6  822.5
295.4  905
295.2  862.5
295  905
294.8  830
294.6  880
294.4  957.5
294.2  842.5
294  820
293.8  810
293.6  840
293.4  830
293.2  1012.5
293  865
292.8  827.5
292.6  885
292.4  832.5
292.2  835
292  840
291.8  887.5
291.6  770
291.4  932.5
291.2  865
291  837.5
290.8  902.5
290.6  892.5
290.4  900
290.2  727.5
290  840
289.8  957.5
289.6  882.5
289.4  1000
289.2  920
289  922.5
288.8  887.5
288.6  887.5
288.4  1000
288.2  912.5
288  935
287.8  932.5
287.6  997.5
287.4  1017.5
287.2  1035
287  1042.5
286.8  1132.5
286.6  1080
286.4  1022.5
286.2  1085
286  1105
285.8  1035
285.6  1110
285.4  1092.5
285.2  965
285  932.5
284.8  1042.5
284.6  995
284.4  990
284.2  847.5
284  892.5
283.8  840
283.6  890
283.4  845
283.2  845
283  842.5
282.8  877.5
282.6  785
282.4  927.5
282.2  897.5
282  897.5
281.8  850
281.6  857.5
281.4  872.5
281.2  847.5
281  797.5
280.8  817.5
280.6  912.5
280.4  852.5
280.2  895
280  760
279.8  787.5
279.6  852.5
279.4  832.5
279.2  822.5
279  817.5
278.8  885
278.6  797.5
278.4  912.5
278.2  855
278  857.5
277.8  825
277.6  932.5
277.4  817.5
277.2  912.5
277  862.5
276.8  860
276.6  882.5
276.4  867.5
276.2  820
276  870
275.8  730
275.6  880
275.4  920
275.2  925
275  945
274.8  837.5
274.6  830
274.4  940
274.2  910
274  847.5
273.8  890
273.6  907.5
273.4  817.5
273.2  772.5
273  797.5
272.8  847.5
272.6  752.5
272.4  855
272.2  875
272  860
271.8  870
271.6  850
271.4  875
271.2  867.5
271  792.5
270.8  757.5
270.6  885
270.4  747.5
270.2  902.5
270  872.5
269.8  820
269.6  925
269.4  902.5
269.2  882.5
269  857.5
268.8  927.5
268.6  817.5
268.4  837.5
268.2  905
268  872.5
267.8  877.5
267.6  817.5
267.4  857.5
267.2  850
267  915
266.8  877.5
266.6  785
266.4  882.5
266.2  882.5
266  880
265.8  817.5
265.6  897.5
265.4  792.5
265.2  847.5
265  897.5
264.8  870
264.6  812.5
264.4  910
264.2  855
264  887.5
263.8  865
263.6  807.5
263.4  872.5
263.2  810
263  837.5
262.8  812.5
262.6  815
262.4  902.5
262.2  872.5
262  947.5
261.8  817.5
261.6  857.5
261.4  847.5
261.2  752.5
261  805
260.8  840
260.6  810
260.4  830
260.2  842.5
260  755
259.8  840
259.6  875
259.4  867.5
259.2  877.5
259  855
258.8  722.5
258.6  915
258.4  832.5
258.2  910
258  795
257.8  915
257.6  870
257.4  862.5
257.2  817.5
257  847.5
256.8  820
256.6  777.5
256.4  777.5
256.2  857.5
256  815
255.8  685
255.6  870
255.4  925
255.2  810
255  807.5
254.8  797.5
254.6  790
254.4  775
254.2  822.5
254  890
253.8  815
253.6  777.5
253.4  830
253.2  842.5
253  865
252.8  907.5
252.6  705
252.4  935
252.2  760
252  812.5
251.8  890
251.6  842.5
251.4  772.5
251.2  895
251  885
250.8  792.5
250.6  942.5
250.4  767.5
250.2  837.5
250  797.5
249.8  852.5
249.6  852.5
249.4  812.5
249.2  822.5
249  845
248.8  785
248.6  820
248.4  890
248.2  910
248  865
247.8  882.5
247.6  810
247.4  797.5
247.2  867.5
247  822.5
246.8  812.5
246.6  820
246.4  862.5
246.2  925
246  832.5
245.8  785
245.6  807.5
245.4  932.5
245.2  850
245  895
244.8  880
244.6  902.5
244.4  822.5
244.2  902.5
244  897.5
243.8  912.5
243.6  882.5
243.4  942.5
243.2  842.5
243  882.5
242.8  935
242.6  950
242.4  855
242.2  837.5
242  897.5
241.8  882.5
241.6  882.5
241.4  807.5
241.2  852.5
241  802.5
240.8  907.5
240.6  847.5
240.4  920
240.2  747.5
240  780
239.8  822.5
239.6  917.5
239.4  842.5
239.2  822.5
239  827.5
238.8  770
238.6  827.5
238.4  855
238.2  810
238  862.5
237.8  777.5
237.6  817.5
237.4  820
237.2  750
237  870
236.8  762.5
236.6  887.5
236.4  740
236.2  817.5
236  822.5
235.8  810
235.6  770
235.4  885
235.2  805
235  857.5
234.8  855
234.6  840
234.4  812.5
234.2  805
234  907.5
233.8  965
233.6  875
233.4  847.5
233.2  830
233  867.5
232.8  837.5
232.6  815
232.4  805
232.2  877.5
232  780
231.8  837.5
231.6  832.5
231.4  880
231.2  865
231  872.5
230.8  825
230.6  822.5
230.4  800
230.2  905
230  847.5
229.8  880
229.6  810
229.4  812.5
229.2  790
229  880
228.8  750
228.6  732.5
228.4  767.5
228.2  905
228  917.5
227.8  895
227.6  830
227.4  867.5
227.2  812.5
227  790
226.8  800
226.6  800
226.4  812.5
226.2  875
226  817.5
225.8  837.5
225.6  792.5
225.4  807.5
225.2  837.5
225  785
224.8  792.5
224.6  842.5
224.4  850
224.2  782.5
224  910
223.8  790
223.6  760
223.4  832.5
223.2  752.5
223  837.5
222.8  872.5
222.6  875
222.4  872.5
222.2  847.5
222  887.5
221.8  812.5
221.6  845
221.4  840
221.2  767.5
221  777.5
220.8  850
220.6  887.5
220.4  790
220.2  825
220  872.5
219.8  822.5
219.6  845
219.4  810
219.2  742.5
219  837.5
218.8  862.5
218.6  892.5
218.4  870
218.2  900
218  787.5
217.8  807.5
217.6  915
217.4  865
217.2  827.5
217  862.5
216.8  830
216.6  767.5
216.4  907.5
216.2  800
216  795
215.8  905
215.6  892.5
215.4  777.5
215.2  827.5
215  850
214.8  860
214.6  815
214.4  815
214.2  832.5
214  847.5
213.8  867.5
213.6  812.5
213.4  880
213.2  865
213  825
212.8  857.5
212.6  790
212.4  807.5
212.2  895
212  807.5
211.8  815
211.6  855
211.4  937.5
211.2  850
211  802.5
210.8  800
210.6  812.5
210.4  950
210.2  762.5
210  797.5
209.8  800
209.6  905
209.4  775
209.2  875
209  912.5
208.8  895
208.6  870
208.4  830
208.2  777.5
208  867.5
207.8  910
207.6  952.5
207.4  845
207.2  800
207  807.5
206.8  760
206.6  912.5
206.4  847.5
206.2  955
206  810
205.8  790
205.6  890
205.4  797.5
205.2  907.5
205  775
204.8  705
204.6  830
204.4  692.5
204.2  792.5
204  780
203.8  810
203.6  860
203.4  932.5
203.2  795
203  855
202.8  855
202.6  817.5
202.4  785
202.2  930
202  857.5
201.8  815
201.6  847.5
201.4  867.5
201.2  905
201  862.5
200.8  852.5
200.6  752.5
200.4  915
200.2  822.5
200  897.5
199.8  870
199.6  877.5
199.4  847.5
199.2  837.5
199  835
198.8  867.5
198.6  877.5
198.4  837.5
198.2  882.5
198  772.5
197.8  820
197.6  887.5
197.4  850
197.2  802.5
197  797.5
196.8  845
196.6  832.5
196.4  840
196.2  820
196  857.5
195.8  840
195.6  915
195.4  800
195.2  915
195  875
194.8  887.5
194.6  842.5
194.4  882.5
194.2  900
194  847.5
193.8  877.5
193.6  890
193.4  812.5
193.2  815
193  932.5
192.8  847.5
192.6  880
192.4  947.5
192.2  797.5
192  877.5
191.8  870
191.6  915
191.4  847.5
191.2  870
191  890
190.8  855
190.6  902.5
190.4  740
190.2  870
190  850
189.8  842.5
189.6  790
189.4  895
189.2  922.5
189  865
188.8  867.5
188.6  802.5
188.4  805
188.2  767.5
188  772.5
187.8  927.5
187.6  800
187.4  780
187.2  922.5
187  860
186.8  825
186.6  855
186.4  917.5
186.2  757.5
186  827.5
185.8  840
185.6  895
185.4  815
185.2  907.5
185  900
184.8  860
184.6  865
184.4  877.5
184.2  845
184  832.5
183.8  910
183.6  865
183.4  947.5
183.2  832.5
183  932.5
182.8  832.5
182.6  877.5
182.4  915
182.2  737.5
182  910
181.8  767.5
181.6  882.5
181.4  845
181.2  765
181  890
180.8  775
180.6  825
180.4  800
180.2  890
180  830
179.8  847.5
179.6  862.5
179.4  902.5
179.2  872.5
179  835
178.8  840
178.6  767.5
178.4  792.5
178.2  947.5
178  782.5
177.8  817.5
177.6  857.5
177.4  820
177.2  792.5
177  837.5
176.8  892.5
176.6  840
176.4  942.5
176.2  910
176  862.5
175.8  807.5
175.6  870
175.4  850
175.2  805
175  915
174.8  772.5
174.6  835
174.4  887.5
174.2  860
174  822.5
173.8  860
173.6  870
173.4  875
173.2  787.5
173  837.5
172.8  872.5
172.6  830
172.4  897.5
172.2  860
172  890
171.8  865
171.6  827.5
171.4  790
171.2  915
171  850
170.8  860
170.6  817.5
170.4  792.5
170.2  860
170  937.5
169.8  945
169.6  847.5
169.4  827.5
169.2  835
169  855
168.8  885
168.6  957.5
168.4  805
168.2  857.5
168  835
167.8  827.5
167.6  852.5
167.4  910
167.2  842.5
167  862.5
166.8  865
166.6  837.5
166.4  792.5
166.2  837.5
166  932.5
165.8  907.5
165.6  805
165.4  910
165.2  935
165  930
164.8  852.5
164.6  882.5
164.4  920
164.2  895
164  912.5
163.8  812.5
163.6  807.5
163.4  930
163.2  917.5
163  912.5
162.8  887.5
162.6  882.5
162.4  845
162.2  857.5
162  935
161.8  837.5
161.6  890
161.4  812.5
161.2  810
161  762.5
160.8  847.5
160.6  815
160.4  870
160.2  870
160  845
159.8  865
159.6  852.5
159.4  932.5
159.2  825
159  900
158.8  932.5
158.6  812.5
158.4  900
158.2  940
158  785
157.8  830
157.6  927.5
157.4  872.5
157.2  905
157  840
156.8  777.5
156.6  945
156.4  922.5
156.2  802.5
156  852.5
155.8  910
155.6  900
155.4  900
155.2  880
155  875
154.8  812.5
154.6  940
154.4  892.5
154.2  930
154  880
153.8  877.5
153.6  830
153.4  820
153.2  890
153  827.5
152.8  827.5
152.6  875
152.4  845
152.2  935
152  852.5
151.8  827.5
151.6  860
151.4  855
151.2  875
151  862.5
150.8  940
150.6  885
150.4  867.5
150.2  877.5
150  837.5
149.8  925
149.6  917.5
149.4  797.5
149.2  927.5
149  900
148.8  842.5
148.6  847.5
148.4  815
148.2  830
148  920
147.8  822.5
147.6  970
147.4  802.5
147.2  797.5
147  860
146.8  860
146.6  905
146.4  935
146.2  812.5
146  917.5
145.8  845
145.6  937.5
145.4  870
145.2  850
145  835
144.8  867.5
144.6  825
144.4  905
144.2  887.5
144  892.5
143.8  837.5
143.6  835
143.4  892.5
143.2  787.5
143  777.5
142.8  905
142.6  867.5
142.4  800
142.2  885
142  855
141.8  905
141.6  790
141.4  902.5
141.2  900
141  775
140.8  845
140.6  827.5
140.4  940
140.2  882.5
140  882.5
139.8  790
139.6  867.5
139.4  945
139.2  857.5
139  892.5
138.8  955
138.6  890
138.4  772.5
138.2  872.5
138  870
137.8  867.5
137.6  892.5
137.4  890
137.2  832.5
137  897.5
136.8  782.5
136.6  927.5
136.4  912.5
136.2  852.5
136  857.5
135.8  810
135.6  842.5
135.4  855
135.2  942.5
135  857.5
134.8  912.5
134.6  852.5
134.4  885
134.2  812.5
134  877.5
133.8  825
133.6  807.5
133.4  865
133.2  820
133  737.5
132.8  915
132.6  805
132.4  935
132.2  730
132  890
131.8  865
131.6  842.5
131.4  845
131.2  907.5
131  860
130.8  960
130.6  887.5
130.4  890
130.2  975
130  857.5
129.8  890
129.6  867.5
129.4  957.5
129.2  892.5
129  955
128.8  872.5
128.6  915
128.4  915
128.2  927.5
128  857.5
127.8  1025
127.6  1007.5
127.4  967.5
127.2  922.5
127  850
126.8  947.5
126.6  890
126.4  985
126.2  1002.5
126  872.5
125.8  1055
125.6  1037.5
125.4  992.5
125.2  885
125  1090
124.8  1087.5
124.6  947.5
124.4  1090
124.2  955
124  1020
123.8  960
123.6  1112.5
123.4  975
123.2  977.5
123  1002.5
122.8  975
122.6  1040
122.4  1027.5
122.2  925
122  1015
121.8  937.5
121.6  902.5
121.4  917.5
121.2  850
121  885
120.8  922.5
120.6  935
120.4  820
120.2  877.5
120  830
119.8  857.5
119.6  812.5
119.4  847.5
119.2  925
119  842.5
118.8  830
118.6  847.5
118.4  830
118.2  897.5
118  790
117.8  865
117.6  885
117.4  805
117.2  915
117  852.5
116.8  925
116.6  882.5
116.4  885
116.2  857.5
116  950
115.8  852.5
115.6  930
115.4  910
115.2  897.5
115  917.5
114.8  850
114.6  817.5
114.4  927.5
114.2  810
114  890
113.8  935
113.6  892.5
113.4  865
113.2  860
113  957.5
112.8  797.5
112.6  842.5
112.4  757.5
112.2  842.5
112  785
111.8  875
111.6  810
111.4  920
111.2  775
111  892.5
110.8  895
110.6  817.5
110.4  920
110.2  867.5
110  752.5
109.8  827.5
109.6  890
109.4  850
109.2  932.5
109  805
108.8  907.5
108.6  890
108.4  837.5
108.2  907.5
108  930
107.8  855
107.6  907.5
107.4  830
107.2  890
107  875
106.8  812.5
106.6  880
106.4  895
106.2  880
106  842.5
105.8  892.5
105.6  890
105.4  847.5
105.2  890
105  842.5
104.8  872.5
104.6  872.5
104.4  885
104.2  892.5
104  907.5
103.8  825
103.6  790
103.4  885
103.2  912.5
103  877.5
102.8  872.5
102.6  880
102.4  922.5
102.2  817.5
102  865
101.8  970
101.6  847.5
101.4  780
101.2  840
101  897.5
100.8  877.5
100.6  895
100.4  920
100.2  860
100  815
99.8  817.5
99.6  920
99.4  930
99.2  957.5
99  937.5
98.8  895
98.6  905
98.4  872.5
98.2  862.5
98  965
97.8  830
97.6  980
97.4  935
97.2  880
97  935
96.8  877.5
96.6  927.5
96.4  845
96.2  940
96  925
95.8  1022.5
95.6  860
95.4  900
95.2  807.5
95  862.5
94.8  930
94.6  982.5
94.4  950
94.2  937.5
94  885
93.8  870
93.6  940
93.4  1000
93.2  897.5
93  900
92.8  837.5
92.6  965
92.4  827.5
92.2  915
92  915
91.8  795
91.6  940
91.4  940
91.2  972.5
91  977.5
90.8  880
90.6  867.5
90.4  945
90.2  972.5
90  867.5
89.8  1022.5
89.6  875
89.4  997.5
89.2  925
89  927.5
88.8  915
88.6  967.5
88.4  1005
88.2  917.5
88  947.5
87.8  910
87.6  1005
87.4  945
87.2  1030
87  970
86.8  1015
86.6  992.5
86.4  920
86.2  992.5
86  957.5
85.8  935
85.6  910
85.4  1060
85.2  990
85  930
84.8  940
84.6  1010
84.4  1027.5
84.2  1007.5
84  1055
83.8  962.5
83.6  985
83.4  1027.5
83.2  975
83  887.5
82.8  1050
82.6  1042.5
82.4  977.5
82.2  1007.5
82  937.5
81.8  1027.5
81.6  1107.5
81.4  1062.5
81.2  1090
81  1022.5
80.8  970
80.6  1010
80.4  1052.5
80.2  992.5
80  1062.5
79.8  990
79.6  972.5
79.4  1087.5
79.2  970
79  1085
78.8  997.5
78.6  960
78.4  1105
78.2  975
78  957.5
77.8  1015
77.6  945
77.4  950
77.2  987.5
77  840
76.8  962.5
76.6  835
76.4  890
76.2  895
76  812.5
75.8  825
75.6  807.5
75.4  907.5
75.2  877.5
75  892.5
74.8  860
74.6  897.5
74.4  865
74.2  830
74  822.5
73.8  825
73.6  755
73.4  777.5
73.2  820
73  727.5
72.8  745
72.6  782.5
72.4  822.5
72.2  845
72  835
71.8  697.5
71.6  862.5
71.4  845
71.2  750
71  840
70.8  810
70.6  747.5
70.4  722.5
70.2  727.5
70  740
69.8  740
69.6  670
69.4  727.5
69.2  777.5
69  662.5
68.8  745
68.6  720
68.4  745
68.2  710
68  627.5
67.8  760
67.6  640
67.4  772.5
67.2  692.5
67  657.5
66.8  647.5
66.6  710
66.4  712.5
66.2  710
66  757.5
65.8  670
65.6  657.5
65.4  722.5
65.2  645
65  705
64.8  755
64.6  725
64.4  660
64.2  615
64  680
63.8  682.5
63.6  700
63.4  692.5
63.2  657.5
63  705
62.8  682.5
62.6  695
62.4  670
62.2  702.5
62  650
61.8  627.5
61.6  642.5
61.4  550
61.2  710
61  655
60.8  717.5
60.6  602.5
60.4  652.5
60.2  717.5
60  635
59.8  605
59.6  672.5
59.4  585
59.2  637.5
59  682.5
58.8  560
58.6  660
58.4  617.5
58.2  652.5
58  640
57.8  627.5
57.6  652.5
57.4  675
57.2  650
57  662.5
56.8  667.5
56.6  637.5
56.4  620
56.2  585
56  635
55.8  675
55.6  585
55.4  650
55.2  610
55  652.5
54.8  610
54.6  615
54.4  685
54.2  607.5
54  632.5
53.8  577.5
53.6  630
53.4  617.5
53.2  645
53  680
52.8  620
52.6  572.5
52.4  687.5
52.2  587.5
52  597.5
51.8  572.5
51.6  592.5
51.4  630
51.2  670
51  627.5
50.8  580
50.6  572.5
50.4  645
50.2  640
50  607.5
49.8  657.5
49.6  650
49.4  660
49.2  615
49  675
48.8  672.5
48.6  592.5
48.4  617.5
48.2  667.5
48  652.5
47.8  692.5
47.6  602.5
47.4  612.5
47.2  635
47  685
46.8  700
46.6  612.5
46.4  555
46.2  690
46  625
45.8  667.5
45.6  675
45.4  640
45.2  697.5
45  702.5
44.8  657.5
44.6  562.5
44.4  677.5
44.2  690
44  635
43.8  600
43.6  667.5
43.4  737.5
43.2  677.5
43  592.5
42.8  747.5
42.6  625
42.4  602.5
42.2  650
42  685
41.8  650
41.6  597.5
41.4  685
41.2  712.5
41  592.5
40.8  597.5
40.6  770
40.4  637.5
40.2  722.5
40  692.5
39.8  705
39.6  582.5
39.4  687.5
39.2  717.5
39  680
38.8  715
38.6  687.5
38.4  720
38.2  707.5
38  625
37.8  660
37.6  705
37.4  692.5
37.2  702.5
37  742.5
36.8  657.5
36.6  662.5
36.4  722.5
36.2  710
36  707.5
35.8  617.5
35.6  685
35.4  647.5
35.2  630
35  695
34.8  677.5
34.6  652.5
34.4  642.5
34.2  687.5
34  622.5
33.8  552.5
33.6  617.5
33.4  600
33.2  730
33  625
32.8  585
32.6  680
32.4  682.5
32.2  582.5
32  605
31.8  645
31.6  672.5
31.4  625
31.2  660
31  627.5
30.8  675
30.6  650
30.4  710
30.2  597.5
30  672.5
29.8  620
29.6  625
29.4  672.5
29.2  642.5
29  632.5
28.8  667.5
28.6  632.5
28.4  600
28.2  632.5
28  720
27.8  797.5
27.6  850
27.4  717.5
27.2  747.5
27  685
26.8  702.5
26.6  695
26.4  717.5
26.2  690
26  695
25.8  597.5
25.6  647.5
25.4  700
25.2  705
25  672.5
24.8  622.5
24.6  647.5
24.4  615
24.2  657.5
24  647.5
23.8  675
23.6  650
23.4  605
23.2  657.5
23  637.5
22.8  687.5
22.6  672.5
22.4  672.5
22.2  770
22  780
21.8  747.5
21.6  805
21.4  755
21.2  870
21  980
20.8  1052.5
20.6  1167.5
20.4  1300
20.2  1475
20  1682.5
19.8  1772.5
19.6  1937.5
19.4  2215
19.2  2322.5
19  2362.5
18.8  2450
18.6  2345
18.4  2285
18.2  2150
18  2052.5
17.8  1712.5
17.6  1465
17.4  1370
17.2  1165
17  915
16.8  830
16.6  680
16.4  652.5
16.2  642.5
16  587.5
15.8  545
15.6  572.5
15.4  607.5
15.2  505
15  475
14.8  470
14.6  510
14.4  460
14.2  525
14  412.5
13.8  497.5
13.6  490
13.4  442.5
13.2  415
13  427.5
12.8  472.5
12.6  402.5
12.4  497.5
12.2  512.5
12  402.5
11.8  467.5
11.6  457.5
11.4  485
11.2  532.5
11  475
10.8  500
10.6  567.5
10.4  525
10.2  540
10  522.5
9.8  597.5
9.6  605
9.4  590
9.2  647.5
9  647.5
8.8  620
8.6  662.5
8.4  650
8.2  625
8  662.5
7.8  575
7.6  642.5
7.4  570
7.2  610
7  580
6.8  507.5
6.6  567.5
6.4  547.5
6.2  515
6  582.5
5.8  565
5.6  515
5.4  477.5
5.2  527.5
5  412.5
4.8  457.5
4.6  455
4.4  447.5
4.2  482.5
4  445
3.8  462.5
3.6  450
3.4  457.5
3.2  472.5
3  410
2.8  360
2.6  395
2.4  317.5
2.2  447.5
2  415
1.8  425
1.6  420
1.4  355
1.2  377.5
1  352.5
0.8  382.5
0.6  422.5
0.4  380
0.2  415
-2.2737368e-013  450
-0.2  382.5
-0.4  375
-0.6  390
-0.8  397.5
-1  432.5
-1.2  357.5
-1.4  385
-1.6  345
-1.8  382.5
-2  422.5
-2.2  342.5
-2.4  377.5
-2.6  390
-2.8  350
-3  460
-3.2  447.5
-3.4  317.5
-3.6  420
-3.8  417.5
-4  407.5

