# Created by:        SpecsLab Prodigy, Version 4.60.2-r85849 
#
# XY-Serializer Export Settings:
#   Comment Prefix:           #
#   Output meta data:         yes
#   Energy Axis:              Binding Energy
#   Count Rate:               Counts per Second
#   Separate Scan Data:       no
#   Separate Channel Data:    no
#   External Channel Data:    yes
#   Transmission Function:    no
#   ErrorBar:                 no
#   Operation Results:        yes
#   Time Zone Format:         UTC
#
# Group:             Spectrum Group
#
# Region:            C1s
# Acquisition Date:  09/15/22 20:21:09 UTC
# Analysis Method:   XPS
# Analyzer:          Phoibos 100 R6
# Analyzer Lens:     LargeArea:1.5kV
# Analyzer Slit:     1:0.2x20\B:open
# Scan Mode:         FixedAnalyzerTransmission
# Curves/Scan:       1
# Values/Curve:      151
# Dwell Time:        0.8
# Excitation Energy: 1486.61
# Binding Energy:    295
# Pass Energy:       30
# Bias Voltage:      90
# Detector Voltage:  2600
# Eff. Workfunction: 4.309
# Source:            X-Ray Dummy
# Comment:           
#
# Cycle: 0
# Number of Scans: 40
#
# Cycle: 0, Curve: 0
# Acquisition Date: 09/15/22 20:21:09 UTC
#
# ColumnLabels: energy counts/s
#
295  920.78125
294.9  915.46875
294.8  919.375
294.7  928.59375
294.6  932.09375
294.5  927.53125
294.4  925.6875
294.3  931.375
294.2  927.625
294.1  931.25
294  929.125
293.9  942.09375
293.8  931.34375
293.7  924.03125
293.6  931.1875
293.5  918.1875
293.4  927.375
293.3  928.59375
293.2  923.5625
293.1  920.15625
293  914.65625
292.9  920.375
292.8  915.78125
292.7  923.21875
292.6  917.1875
292.5  914.53125
292.4  909.78125
292.3  919.03125
292.2  919
292.1  929.9375
292  919.71875
291.9  923.09375
291.8  915.71875
291.7  917.375
291.6  914.125
291.5  931.25
291.4  920.71875
291.3  934.90625
291.2  922.59375
291.1  933
291  931.71875
290.9  928.4375
290.8  937.625
290.7  937.78125
290.6  941.96875
290.5  949.125
290.4  951.0625
290.3  949.65625
290.2  952.71875
290.1  952.6875
290  954.6875
289.9  963.59375
289.8  963.9375
289.7  979.03125
289.6  985.71875
289.5  985.1875
289.4  986.96875
289.3  1001.4688
289.2  988.53125
289.1  979.25
289  1000.9688
288.9  1008.0938
288.8  1009.7813
288.7  1022.2813
288.6  1021.5938
288.5  1024.8438
288.4  1039.75
288.3  1051.25
288.2  1054.125
288.1  1061.4688
288  1069.5
287.9  1086.125
287.8  1108.1875
287.7  1115.9375
287.6  1131.625
287.5  1159.4063
287.4  1172.6563
287.3  1200.3438
287.2  1220.9063
287.1  1232.0313
287  1244.9375
286.9  1274.6875
286.8  1292.1563
286.7  1329
286.6  1336.5938
286.5  1350.875
286.4  1384.1875
286.3  1395.75
286.2  1433.4375
286.1  1412.5625
286  1430.2813
285.9  1429.6563
285.8  1421.25
285.7  1417.7813
285.6  1402
285.5  1371.9688
285.4  1344.7813
285.3  1330.9688
285.2  1292.0313
285.1  1261.4688
285  1219.7813
284.9  1193.625
284.8  1149.375
284.7  1120.9375
284.6  1091.7813
284.5  1062.3438
284.4  1032.625
284.3  1002.7188
284.2  999.78125
284.1  973.65625
284  961.875
283.9  944.25
283.8  935.15625
283.7  932.40625
283.6  926.28125
283.5  918.09375
283.4  916.40625
283.3  903.125
283.2  912.3125
283.1  898.84375
283  899.96875
282.9  895.875
282.8  905.4375
282.7  892.8125
282.6  896.4375
282.5  892.375
282.4  883.59375
282.3  902.375
282.2  884.875
282.1  893.15625
282  908.84375
281.9  887.25
281.8  876.78125
281.7  884.90625
281.6  885.4375
281.5  889.53125
281.4  890.4375
281.3  894.625
281.2  872.96875
281.1  884.125
281  888.53125
280.9  878.25
280.8  883.71875
280.7  890.53125
280.6  891.84375
280.5  881.1875
280.4  890.75
280.3  886.75
280.2  886.25
280.1  891.3125
280  880.125

# Region:            Ba3d
# Acquisition Date:  09/15/22 15:48:29 UTC
# Analysis Method:   XPS
# Analyzer:          Phoibos 100 R6
# Analyzer Lens:     LargeArea:1.5kV
# Analyzer Slit:     1:0.2x20\B:open
# Scan Mode:         FixedAnalyzerTransmission
# Curves/Scan:       1
# Values/Curve:      121
# Dwell Time:        0.8
# Excitation Energy: 1486.61
# Binding Energy:    789
# Pass Energy:       30
# Bias Voltage:      90
# Detector Voltage:  2600
# Eff. Workfunction: 4.309
# Source:            X-Ray Dummy
# Comment:           
#
# Cycle: 0
# Number of Scans: 5
#
# Cycle: 0, Curve: 0
# Acquisition Date: 09/15/22 15:48:29 UTC
#
# ColumnLabels: energy counts/s
#
789  4519.25
788.9  4520
788.8  4579
788.7  4550.75
788.6  4514.25
788.5  4572.5
788.4  4539
788.3  4558
788.2  4584.75
788.1  4504.75
788  4561.75
787.9  4545.25
787.8  4580.5
787.7  4590.5
787.6  4552.75
787.5  4512.25
787.4  4502
787.3  4604.25
787.2  4485.25
787.1  4512
787  4544
786.9  4609.25
786.8  4590.5
786.7  4500.5
786.6  4575
786.5  4592.5
786.4  4527.5
786.3  4583.75
786.2  4471.75
786.1  4558.5
786  4523.5
785.9  4512
785.8  4509.25
785.7  4523.75
785.6  4498
785.5  4546.75
785.4  4536.5
785.3  4515.75
785.2  4526.75
785.1  4507.5
785  4533.75
784.9  4499.25
784.8  4500.5
784.7  4565.5
784.6  4541.25
784.5  4544.5
784.4  4495
784.3  4568
784.2  4551
784.1  4525
784  4548
783.9  4545.5
783.8  4521.75
783.7  4531.5
783.6  4546.75
783.5  4614.5
783.4  4463.5
783.3  4555.5
783.2  4497.25
783.1  4566
783  4618
782.9  4544.75
782.8  4527.75
782.7  4556.75
782.6  4513.75
782.5  4528
782.4  4523.75
782.3  4498
782.2  4496.75
782.1  4502
782  4528
781.9  4544.25
781.8  4548.75
781.7  4533.25
781.6  4527.75
781.5  4479.25
781.4  4553.5
781.3  4515.25
781.2  4507.5
781.1  4529.25
781  4565.75
780.9  4508.25
780.8  4525.25
780.7  4469
780.6  4543
780.5  4539.75
780.4  4490.75
780.3  4612
780.2  4501.25
780.1  4497.5
780  4595.25
779.9  4490.25
779.8  4677.25
779.7  4514.5
779.6  4547
779.5  4594.25
779.4  4560.25
779.3  4528
779.2  4470
779.1  4499
779  4493.5
778.9  4501
778.8  4503.75
778.7  4529.5
778.6  4517
778.5  4513
778.4  4503.5
778.3  4479
778.2  4521.75
778.1  4487.25
778  4589.25
777.9  4561.5
777.8  4534.75
777.7  4512
777.6  4524.75
777.5  4546.25
777.4  4515.75
777.3  4534
777.2  4541.5
777.1  4545
777  4526

# Region:            Cl2p
# Acquisition Date:  09/15/22 16:35:11 UTC
# Analysis Method:   XPS
# Analyzer:          Phoibos 100 R6
# Analyzer Lens:     LargeArea:1.5kV
# Analyzer Slit:     1:0.2x20\B:open
# Scan Mode:         FixedAnalyzerTransmission
# Curves/Scan:       1
# Values/Curve:      111
# Dwell Time:        0.8
# Excitation Energy: 1486.61
# Binding Energy:    207
# Pass Energy:       30
# Bias Voltage:      90
# Detector Voltage:  2600
# Eff. Workfunction: 4.309
# Source:            X-Ray Dummy
# Comment:           
#
# Cycle: 0
# Number of Scans: 10
#
# Cycle: 0, Curve: 0
# Acquisition Date: 09/15/22 16:35:11 UTC
#
# ColumnLabels: energy counts/s
#
207  845.375
206.9  869.25
206.8  866.375
206.7  849
206.6  862.25
206.5  868.5
206.4  853.875
206.3  846.75
206.2  853.625
206.1  847.125
206  864.375
205.9  847.75
205.8  864.625
205.7  868.875
205.6  850
205.5  865.5
205.4  847
205.3  867.25
205.2  852.75
205.1  851.375
205  869.625
204.9  862.5
204.8  846.375
204.7  847.375
204.6  844.75
204.5  842.375
204.4  841.875
204.3  853.125
204.2  869.625
204.1  861.375
204  835.5
203.9  865.375
203.8  854
203.7  862
203.6  853.375
203.5  865.875
203.4  854.5
203.3  859.625
203.2  854.125
203.1  867.625
203  853.25
202.9  860.25
202.8  853.875
202.7  844.25
202.6  873.375
202.5  850.375
202.4  869.75
202.3  858.375
202.2  860.375
202.1  869.375
202  829.25
201.9  871.5
201.8  873.375
201.7  863
201.6  853.875
201.5  845.75
201.4  845.125
201.3  855.125
201.2  863.25
201.1  888.375
201  879.375
200.9  862.875
200.8  864.5
200.7  857
200.6  844.375
200.5  883.125
200.4  847.125
200.3  864.5
200.2  855.375
200.1  872.375
200  861.75
199.9  886.625
199.8  868.625
199.7  873
199.6  873.5
199.5  870
199.4  862
199.3  877.5
199.2  882.25
199.1  898.5
199  856.75
198.9  853
198.8  882.25
198.7  884.625
198.6  865.25
198.5  876.125
198.4  866.875
198.3  891
198.2  874.125
198.1  873.5
198  872.375
197.9  859.625
197.8  876
197.7  866.125
197.6  859.125
197.5  874.5
197.4  876.625
197.3  841.75
197.2  863.625
197.1  860.75
197  861.625
196.9  870.375
196.8  849.75
196.7  873
196.6  863.75
196.5  847.625
196.4  846.75
196.3  848
196.2  846.75
196.1  840.5
196  869.375

# Region:            overview
# Acquisition Date:  09/15/22 14:57:37 UTC
# Analysis Method:   XPS
# Analyzer:          Phoibos 100 R6
# Analyzer Lens:     MediumArea:1.5kV
# Analyzer Slit:     1:0.2x20\B:open
# Scan Mode:         FixedAnalyzerTransmission
# Curves/Scan:       1
# Values/Curve:      1205
# Dwell Time:        0.2
# Excitation Energy: 1486.61
# Binding Energy:    1200
# Pass Energy:       50
# Bias Voltage:      90
# Detector Voltage:  2600
# Eff. Workfunction: 4.309
# Source:            X-Ray Dummy
# Comment:           
#
# Cycle: 0
# Number of Scans: 1
#
# Cycle: 0, Curve: 0
# Acquisition Date: 09/15/22 14:57:37 UTC
#
# ColumnLabels: energy counts/s
#
1200  7950
1199  7975
1198  7925
1197  8100
1196  8110
1195  8130
1194  8240
1193  8380
1192  8025
1191  7960
1190  7920
1189  8090
1188  7565
1187  7745
1186  8120
1185  7585
1184  7440
1183  7415
1182  7290
1181  7375
1180  7360
1179  7725
1178  7475
1177  7545
1176  7480
1175  7635
1174  7490
1173  7780
1172  7430
1171  7115
1170  7465
1169  7265
1168  7340
1167  7265
1166  7285
1165  7615
1164  7190
1163  7085
1162  7460
1161  6905
1160  7195
1159  7135
1158  7150
1157  7145
1156  7800
1155  7295
1154  7165
1153  6795
1152  7270
1151  6930
1150  6915
1149  7075
1148  6460
1147  6750
1146  6575
1145  6510
1144  6700
1143  6990
1142  7070
1141  6635
1140  6320
1139  6635
1138  6495
1137  6235
1136  6325
1135  6380
1134  6080
1133  6380
1132  6225
1131  6200
1130  6315
1129  5910
1128  5995
1127  6045
1126  6225
1125  5670
1124  6065
1123  5925
1122  6385
1121  5870
1120  6160
1119  5900
1118  5835
1117  5730
1116  6070
1115  5745
1114  5885
1113  5875
1112  5615
1111  6105
1110  5715
1109  5915
1108  5885
1107  5790
1106  5795
1105  5790
1104  5960
1103  5475
1102  5765
1101  5920
1100  5760
1099  5670
1098  5705
1097  5615
1096  5545
1095  5590
1094  5965
1093  5520
1092  6035
1091  5860
1090  6015
1089  6475
1088  6555
1087  6985
1086  6875
1085  6370
1084  6385
1083  6090
1082  5865
1081  5600
1080  5790
1079  5955
1078  5650
1077  5305
1076  4640
1075  4815
1074  4610
1073  4615
1072  4775
1071  4555
1070  4700
1069  4435
1068  4440
1067  4755
1066  4765
1065  4370
1064  4525
1063  4790
1062  4675
1061  4235
1060  4910
1059  4720
1058  4335
1057  4240
1056  4215
1055  4160
1054  4200
1053  4360
1052  4330
1051  4275
1050  4485
1049  4215
1048  4225
1047  3855
1046  4140
1045  3945
1044  4145
1043  4115
1042  4325
1041  3650
1040  4235
1039  4070
1038  4210
1037  4025
1036  4265
1035  3930
1034  4015
1033  3805
1032  3990
1031  3940
1030  4050
1029  3940
1028  4125
1027  4110
1026  4040
1025  4175
1024  4180
1023  4230
1022  4110
1021  3995
1020  4025
1019  3835
1018  4220
1017  3915
1016  3990
1015  4040
1014  3880
1013  4000
1012  4240
1011  4235
1010  4030
1009  4250
1008  3835
1007  4050
1006  4035
1005  3915
1004  4270
1003  4035
1002  3805
1001  3955
1000  4015
999  4135
998  4385
997  3940
996  4125
995  4155
994  3870
993  4080
992  4310
991  3905
990  3855
989  3790
988  4340
987  3905
986  4000
985  4020
984  3745
983  4135
982  3900
981  4050
980  3940
979  3790
978  4100
977  4130
976  4385
975  4640
974  4150
973  4365
972  4175
971  3970
970  3620
969  3870
968  3655
967  3700
966  3815
965  3560
964  3575
963  3815
962  3660
961  3700
960  3475
959  3495
958  3525
957  3960
956  3490
955  3545
954  3520
953  3625
952  3555
951  3225
950  3565
949  3510
948  3645
947  3440
946  3495
945  3675
944  3700
943  3495
942  3480
941  3845
940  3805
939  3465
938  3450
937  3570
936  3730
935  3485
934  3330
933  3760
932  3315
931  3730
930  3600
929  3630
928  3755
927  3450
926  3745
925  3665
924  3485
923  3535
922  3725
921  3710
920  3785
919  3460
918  3560
917  3545
916  3495
915  3520
914  3540
913  3705
912  3650
911  3585
910  3250
909  3450
908  3350
907  3475
906  3240
905  3515
904  3570
903  3725
902  3550
901  3380
900  3830
899  3520
898  3615
897  3950
896  3555
895  3525
894  3610
893  3770
892  3735
891  3395
890  3820
889  3515
888  3395
887  3545
886  3545
885  3685
884  3655
883  3625
882  3605
881  3540
880  3830
879  3630
878  3515
877  3595
876  3660
875  3440
874  3660
873  3755
872  3770
871  3660
870  3670
869  3725
868  3795
867  3640
866  3535
865  3720
864  3295
863  3470
862  3445
861  3560
860  3485
859  3830
858  3645
857  3520
856  3580
855  3775
854  3725
853  3710
852  3595
851  3725
850  3780
849  3835
848  3635
847  3885
846  3675
845  3625
844  3795
843  3590
842  3850
841  3720
840  3650
839  3465
838  3730
837  3665
836  3850
835  4070
834  3800
833  3730
832  3705
831  3815
830  3555
829  3795
828  3720
827  4125
826  3685
825  3740
824  3680
823  4095
822  3630
821  4010
820  3700
819  3685
818  3960
817  3635
816  3615
815  3580
814  3610
813  3720
812  3470
811  3865
810  3745
809  3705
808  3875
807  3515
806  3820
805  3800
804  3810
803  3615
802  3760
801  3595
800  3625
799  3670
798  3895
797  3745
796  3585
795  3830
794  3690
793  3495
792  3820
791  3920
790  3720
789  3725
788  3865
787  3635
786  3665
785  3695
784  3645
783  3720
782  3695
781  3820
780  3685
779  3710
778  3770
777  4000
776  3720
775  3965
774  3820
773  3900
772  3485
771  4000
770  3815
769  3810
768  3885
767  4005
766  3960
765  3765
764  3870
763  3925
762  3815
761  4130
760  4180
759  3900
758  3990
757  4040
756  3730
755  3975
754  4055
753  3790
752  3820
751  3800
750  3835
749  3735
748  4025
747  3800
746  3730
745  3955
744  3830
743  3890
742  3980
741  4155
740  4275
739  3925
738  3735
737  3940
736  4025
735  4040
734  3940
733  4145
732  3865
731  3790
730  3990
729  3860
728  4030
727  4055
726  3850
725  4085
724  4075
723  4115
722  3695
721  4175
720  4200
719  4195
718  4520
717  4145
716  4290
715  3875
714  3995
713  4035
712  3945
711  3915
710  4080
709  4255
708  4115
707  4235
706  4875
705  4800
704  5255
703  4680
702  4140
701  4070
700  3790
699  4040
698  3915
697  3840
696  3940
695  3975
694  4170
693  3975
692  3935
691  4330
690  3990
689  4185
688  4005
687  4015
686  3940
685  3985
684  3895
683  4010
682  3655
681  4110
680  4080
679  3900
678  4050
677  3730
676  3850
675  3665
674  3550
673  3755
672  3600
671  4050
670  4280
669  4665
668  5395
667  5770
666  5735
665  5205
664  4795
663  3990
662  3655
661  3580
660  3565
659  3755
658  3825
657  3660
656  3725
655  3600
654  3490
653  3505
652  3240
651  3505
650  3285
649  3405
648  3420
647  3355
646  3345
645  3435
644  3310
643  3415
642  3405
641  3505
640  3405
639  3520
638  3490
637  3590
636  3475
635  3570
634  3325
633  3430
632  3315
631  3410
630  3305
629  3465
628  3300
627  3505
626  3485
625  3400
624  3285
623  3260
622  3335
621  3355
620  3315
619  3430
618  3350
617  3675
616  3380
615  3230
614  3415
613  3470
612  3655
611  3540
610  3545
609  3420
608  3425
607  3580
606  3420
605  3495
604  3695
603  3680
602  3635
601  3465
600  3275
599  3710
598  3500
597  3880
596  3570
595  3605
594  3695
593  3505
592  3700
591  3445
590  3610
589  3685
588  3635
587  3915
586  3405
585  3655
584  3840
583  3565
582  3865
581  3710
580  3515
579  3780
578  3605
577  3705
576  3535
575  3745
574  3635
573  3795
572  3525
571  3750
570  3730
569  3640
568  3780
567  3560
566  4015
565  3805
564  3735
563  3820
562  3825
561  3645
560  3925
559  4195
558  3560
557  3805
556  3845
555  3960
554  4075
553  3795
552  4015
551  4060
550  3905
549  3910
548  4145
547  4090
546  3795
545  3805
544  3545
543  3645
542  3840
541  3465
540  3480
539  3625
538  3610
537  3385
536  3735
535  4235
534  4200
533  4520
532  5490
531  6375
530  5600
529  4270
528  3825
527  3470
526  3515
525  3445
524  3585
523  3660
522  3705
521  3635
520  3635
519  3680
518  3570
517  3810
516  3405
515  3865
514  3630
513  3600
512  3835
511  3715
510  3615
509  3765
508  3610
507  3700
506  3575
505  3525
504  3660
503  3400
502  3670
501  3715
500  3565
499  3700
498  3860
497  4070
496  4345
495  4205
494  3750
493  3780
492  3650
491  3615
490  3835
489  3795
488  4710
487  5000
486  4085
485  3485
484  3760
483  3625
482  3800
481  3255
480  3580
479  3470
478  3730
477  3515
476  3645
475  3550
474  3885
473  3860
472  3515
471  3540
470  3840
469  3675
468  3795
467  3395
466  3580
465  3605
464  3375
463  3755
462  3615
461  3350
460  3310
459  2955
458  3085
457  2860
456  3235
455  4145
454  7435
453  9410
452  7970
451  4050
450  2650
449  2250
448  3455
447  5690
446  10345
445  12340
444  7460
443  3410
442  2270
441  1845
440  1890
439  1555
438  1725
437  1840
436  2295
435  2020
434  1820
433  1620
432  1395
431  1420
430  1230
429  1305
428  1295
427  1270
426  1235
425  1225
424  1235
423  1340
422  1165
421  1385
420  1145
419  1300
418  1345
417  1135
416  1265
415  1335
414  1145
413  1235
412  1275
411  1085
410  1195
409  1230
408  1295
407  1330
406  1275
405  1240
404  1195
403  1090
402  1160
401  1375
400  1290
399  1335
398  1275
397  1060
396  1115
395  1150
394  1275
393  1300
392  1160
391  1305
390  1240
389  1320
388  1205
387  1070
386  1280
385  1035
384  1235
383  1480
382  1315
381  1270
380  1205
379  1180
378  1395
377  1250
376  1240
375  1190
374  1145
373  1135
372  1195
371  1175
370  1155
369  1165
368  1090
367  1150
366  1165
365  1170
364  1170
363  1270
362  1070
361  1085
360  1175
359  1030
358  1055
357  1175
356  1160
355  1280
354  1190
353  1150
352  1085
351  1095
350  1305
349  1050
348  1190
347  1315
346  1275
345  1215
344  1045
343  1295
342  1085
341  1190
340  1095
339  1255
338  1225
337  1195
336  1075
335  1215
334  1315
333  1140
332  1160
331  1260
330  1120
329  1295
328  1190
327  1255
326  1190
325  1110
324  1060
323  1075
322  1265
321  1235
320  1210
319  1255
318  1205
317  1080
316  1205
315  1080
314  1295
313  1100
312  1275
311  1335
310  1245
309  1205
308  1205
307  1305
306  1295
305  1405
304  1065
303  1235
302  1300
301  1295
300  1300
299  1135
298  1230
297  1120
296  1220
295  1345
294  1140
293  1155
292  1185
291  1045
290  1230
289  1295
288  1565
287  1610
286  1855
285  1620
284  1365
283  1120
282  1225
281  1290
280  1240
279  1320
278  1215
277  1105
276  1160
275  1270
274  1220
273  1195
272  1235
271  1110
270  1150
269  1220
268  1260
267  1145
266  1060
265  1205
264  1260
263  1080
262  1155
261  1325
260  1150
259  1325
258  1170
257  1225
256  1140
255  1300
254  1175
253  1215
252  1200
251  1275
250  1255
249  1200
248  1250
247  1280
246  1210
245  1180
244  1265
243  1225
242  1285
241  1200
240  1135
239  1165
238  1240
237  1255
236  1280
235  1150
234  1235
233  1140
232  1125
231  1455
230  1380
229  1140
228  1165
227  1260
226  1175
225  1370
224  1290
223  1065
222  1190
221  1315
220  1175
219  1330
218  1190
217  1130
216  1180
215  1255
214  1265
213  1050
212  1180
211  1310
210  1275
209  1200
208  1165
207  1085
206  1400
205  1205
204  1190
203  1280
202  1225
201  1435
200  1265
199  1410
198  1170
197  1220
196  1315
195  1285
194  1260
193  1340
192  1160
191  1235
190  1270
189  1305
188  1255
187  1340
186  1240
185  1420
184  1290
183  1300
182  1170
181  1215
180  1350
179  1145
178  1490
177  1345
176  1385
175  1235
174  1295
173  1320
172  1165
171  1230
170  1290
169  1435
168  1345
167  1120
166  1275
165  1360
164  1300
163  1345
162  1260
161  1270
160  1260
159  1150
158  1310
157  1205
156  1200
155  1245
154  1295
153  1460
152  1290
151  1210
150  1250
149  1295
148  1360
147  1185
146  1275
145  1370
144  1260
143  1240
142  1245
141  1185
140  1330
139  1380
138  1405
137  1435
136  1150
135  1200
134  1235
133  1290
132  1205
131  1255
130  1215
129  1430
128  1315
127  1400
126  1445
125  1470
124  1445
123  1515
122  1425
121  1390
120  1345
119  1345
118  1415
117  1165
116  1240
115  1395
114  1280
113  1385
112  1205
111  1225
110  1310
109  1365
108  1185
107  1295
106  1285
105  1315
104  1225
103  1335
102  1250
101  1385
100  1345
99  1420
98  1235
97  1345
96  1155
95  1295
94  1345
93  1300
92  1500
91  1420
90  1295
89  1335
88  1360
87  1380
86  1430
85  1360
84  1555
83  1405
82  1490
81  1470
80  1545
79  1570
78  1435
77  1445
76  1450
75  1245
74  1265
73  1200
72  1285
71  1205
70  1135
69  1145
68  1040
67  1075
66  970
65  1040
64  990
63  980
62  865
61  925
60  1010
59  1025
58  935
57  955
56  1015
55  975
54  1055
53  1035
52  1045
51  1005
50  1020
49  890
48  885
47  1045
46  1100
45  840
44  1060
43  915
42  1025
41  1060
40  1060
39  960
38  1085
37  1015
36  905
35  1035
34  970
33  965
32  945
31  840
30  1060
29  980
28  1155
27  1135
26  970
25  1015
24  840
23  1055
22  1150
21  1400
20  2270
19  3085
18  2745
17  1410
16  905
15  790
14  715
13  745
12  655
11  760
10  760
9  710
8  820
7  855
6  895
5  690
4  765
3  590
2  600
1  615
-2.2737368e-013  640
-1  655
-2  620
-3  570
-4  595

# Region:            In3d
# Acquisition Date:  09/15/22 15:17:55 UTC
# Analysis Method:   XPS
# Analyzer:          Phoibos 100 R6
# Analyzer Lens:     LargeArea:1.5kV
# Analyzer Slit:     1:0.2x20\B:open
# Scan Mode:         FixedAnalyzerTransmission
# Curves/Scan:       1
# Values/Curve:      231
# Dwell Time:        0.8
# Excitation Energy: 1486.61
# Binding Energy:    460
# Pass Energy:       30
# Bias Voltage:      90
# Detector Voltage:  2600
# Eff. Workfunction: 4.309
# Source:            X-Ray Dummy
# Comment:           
#
# Cycle: 0
# Number of Scans: 2
#
# Cycle: 0, Curve: 0
# Acquisition Date: 09/15/22 15:17:55 UTC
#
# ColumnLabels: energy counts/s
#
460  2594.375
459.9  2565.625
459.8  2546.25
459.7  2549.375
459.6  2503.125
459.5  2523.75
459.4  2466.25
459.3  2505
459.2  2390.625
459.1  2500
459  2445
458.9  2424.375
458.8  2503.125
458.7  2507.5
458.6  2416.25
458.5  2366.875
458.4  2407.5
458.3  2380.625
458.2  2471.25
458.1  2378.125
458  2403.125
457.9  2388.125
457.8  2441.25
457.7  2373.75
457.6  2465.625
457.5  2377.5
457.4  2358.125
457.3  2440
457.2  2355.625
457.1  2363.125
457  2376.25
456.9  2402.5
456.8  2410
456.7  2425.625
456.6  2458.75
456.5  2441.875
456.4  2546.25
456.3  2554.375
456.2  2581.875
456.1  2608.75
456  2606.875
455.9  2665.625
455.8  2760
455.7  2831.875
455.6  2817.5
455.5  2901.875
455.4  2977.5
455.3  3048.125
455.2  3255
455.1  3336.875
455  3531.25
454.9  3565
454.8  3900
454.7  3940
454.6  4245
454.5  4445
454.4  4628.75
454.3  4868.125
454.2  5151.875
454.1  5398.125
454  5760.625
453.9  5912.5
453.8  6401.875
453.7  6418.75
453.6  6953.75
453.5  7226.875
453.4  7444.375
453.3  7541.25
453.2  7818.75
453.1  7940.625
453  8237.5
452.9  8221.875
452.8  8180.625
452.7  8265
452.6  7949.375
452.5  7581.25
452.4  7435.625
452.3  7135
452.2  6623.75
452.1  6218.75
452  5708.125
451.9  5358.125
451.8  4811.875
451.7  4411.875
451.6  4022.5
451.5  3582.5
451.4  3195.625
451.3  3115.625
451.2  2798.125
451.1  2622.5
451  2517.5
450.9  2448.75
450.8  2341.875
450.7  2258.125
450.6  2115.625
450.5  2111.875
450.4  2068.75
450.3  2039.375
450.2  1955.625
450.1  1958.75
450  1995
449.9  1995.625
449.8  1973.75
449.7  1935.625
449.6  1902.5
449.5  2010.625
449.4  2040
449.3  1979.375
449.2  1996.25
449.1  1971.875
449  2033.75
448.9  2091.875
448.8  2142.5
448.7  2148.75
448.6  2216.875
448.5  2216.875
448.4  2278.125
448.3  2411.25
448.2  2560
448.1  2605.625
448  2740
447.9  2867.5
447.8  2948.125
447.7  3211.875
447.6  3350
447.5  3456.25
447.4  3646.25
447.3  4056.875
447.2  4310.625
447.1  4555
447  4931.875
446.9  5190
446.8  5559.375
446.7  5977.5
446.6  6321.875
446.5  6729.375
446.4  7139.375
446.3  7600
446.2  7885
446.1  8496.875
446  9074.375
445.9  9211.875
445.8  9695.625
445.7  9995
445.6  10317.5
445.5  10560
445.4  10567.5
445.3  10669.375
445.2  10606.25
445.1  10396.25
445  10103.75
444.9  9819.375
444.8  9063.75
444.7  8833.75
444.6  8166.25
444.5  7586.875
444.4  6926.25
444.3  6264.375
444.2  5766.875
444.1  5144.375
444  4684.375
443.9  4178.75
443.8  3779.375
443.7  3469.375
443.6  3189.375
443.5  2980.625
443.4  2720
443.3  2562.5
443.2  2543.125
443.1  2416.875
443  2292.5
442.9  2220.625
442.8  2199.375
442.7  2182.5
442.6  2004.375
442.5  1981.875
442.4  1963.75
442.3  1926.875
442.2  1903.75
442.1  1843.125
442  1847.5
441.9  1754.375
441.8  1740
441.7  1708.75
441.6  1688.75
441.5  1678.75
441.4  1664.375
441.3  1526.25
441.2  1570.625
441.1  1661.25
441  1603.75
440.9  1507.5
440.8  1493.75
440.7  1516.25
440.6  1461.875
440.5  1468.125
440.4  1405.625
440.3  1451.875
440.2  1457.5
440.1  1426.875
440  1407.5
439.9  1371.25
439.8  1346.875
439.7  1405.625
439.6  1300
439.5  1291.875
439.4  1334.375
439.3  1284.375
439.2  1286.25
439.1  1276.25
439  1261.875
438.9  1273.75
438.8  1262.5
438.7  1266.25
438.6  1272.5
438.5  1258.75
438.4  1223.125
438.3  1211.25
438.2  1222.5
438.1  1273.75
438  1236.25
437.9  1206.25
437.8  1281.875
437.7  1313.75
437.6  1322.5
437.5  1342.5
437.4  1345.625
437.3  1347.5
437.2  1381.875
437.1  1375
437  1471.875

# Region:            Sn3d
# Acquisition Date:  09/15/22 15:04:07 UTC
# Analysis Method:   XPS
# Analyzer:          Phoibos 100 R6
# Analyzer Lens:     LargeArea:1.5kV
# Analyzer Slit:     1:0.2x20\B:open
# Scan Mode:         FixedAnalyzerTransmission
# Curves/Scan:       1
# Values/Curve:      231
# Dwell Time:        0.8
# Excitation Energy: 1486.61
# Binding Energy:    503
# Pass Energy:       30
# Bias Voltage:      90
# Detector Voltage:  2600
# Eff. Workfunction: 4.309
# Source:            X-Ray Dummy
# Comment:           
#
# Cycle: 0
# Number of Scans: 1
#
# Cycle: 0, Curve: 0
# Acquisition Date: 09/15/22 15:04:07 UTC
#
# ColumnLabels: energy counts/s
#
503  2976.25
502.9  2965
502.8  3103.75
502.7  2987.5
502.6  3098.75
502.5  3018.75
502.4  3036.25
502.3  3048.75
502.2  3030
502.1  2960
502  3023.75
501.9  3016.25
501.8  3088.75
501.7  3087.5
501.6  2963.75
501.5  3018.75
501.4  3086.25
501.3  2946.25
501.2  3015
501.1  3000
501  2987.5
500.9  2971.25
500.8  3066.25
500.7  3023.75
500.6  2980
500.5  3001.25
500.4  3097.5
500.3  3113.75
500.2  2998.75
500.1  3093.75
500  3057.5
499.9  2990
499.8  3146.25
499.7  3003.75
499.6  3055
499.5  2973.75
499.4  3176.25
499.3  3013.75
499.2  3038.75
499.1  3070
499  3098.75
498.9  3161.25
498.8  3186.25
498.7  2985
498.6  3115
498.5  3160
498.4  3197.5
498.3  3186.25
498.2  3263.75
498.1  3167.5
498  3228.75
497.9  3191.25
497.8  3268.75
497.7  3358.75
497.6  3382.5
497.5  3375
497.4  3382.5
497.3  3290
497.2  3407.5
497.1  3498.75
497  3481.25
496.9  3483.75
496.8  3521.25
496.7  3586.25
496.6  3602.5
496.5  3673.75
496.4  3657.5
496.3  3750
496.2  3648.75
496.1  3805
496  3762.5
495.9  3775
495.8  3786.25
495.7  3753.75
495.6  3708.75
495.5  3733.75
495.4  3707.5
495.3  3490
495.2  3610
495.1  3707.5
495  3597.5
494.9  3428.75
494.8  3425
494.7  3425
494.6  3266.25
494.5  3315
494.4  3141.25
494.3  3127.5
494.2  3123.75
494.1  3078.75
494  3087.5
493.9  3147.5
493.8  3007.5
493.7  3031.25
493.6  2988.75
493.5  3053.75
493.4  2896.25
493.3  3080
493.2  2855
493.1  2960
493  2978.75
492.9  2965
492.8  2958.75
492.7  2913.75
492.6  2886.25
492.5  2985
492.4  2833.75
492.3  2905
492.2  2910
492.1  2992.5
492  2812.5
491.9  2887.5
491.8  2976.25
491.7  2781.25
491.6  2831.25
491.5  3016.25
491.4  2963.75
491.3  2855
491.2  2890
491.1  3035
491  2901.25
490.9  2845
490.8  2980
490.7  2910
490.6  3005
490.5  2915
490.4  2926.25
490.3  3026.25
490.2  2958.75
490.1  3035
490  2936.25
489.9  3161.25
489.8  3007.5
489.7  2938.75
489.6  3112.5
489.5  3218.75
489.4  3187.5
489.3  3085
489.2  3167.5
489.1  3182.5
489  3305
488.9  3260
488.8  3406.25
488.7  3535
488.6  3472.5
488.5  3487.5
488.4  3592.5
488.3  3646.25
488.2  3600
488.1  3850
488  3737.5
487.9  3781.25
487.8  3822.5
487.7  3888.75
487.6  3941.25
487.5  4000
487.4  3998.75
487.3  3935
487.2  3971.25
487.1  3917.5
487  4006.25
486.9  3910
486.8  3858.75
486.7  3742.5
486.6  3746.25
486.5  3850
486.4  3573.75
486.3  3563.75
486.2  3585
486.1  3466.25
486  3280
485.9  3240
485.8  3168.75
485.7  3147.5
485.6  3077.5
485.5  3093.75
485.4  3068.75
485.3  3100
485.2  3095
485.1  3090
485  2947.5
484.9  2892.5
484.8  2951.25
484.7  2980
484.6  2970
484.5  2957.5
484.4  2966.25
484.3  2851.25
484.2  2956.25
484.1  2890
484  2897.5
483.9  3026.25
483.8  2883.75
483.7  2823.75
483.6  2897.5
483.5  2818.75
483.4  2863.75
483.3  2916.25
483.2  2907.5
483.1  2801.25
483  2913.75
482.9  2883.75
482.8  2942.5
482.7  2887.5
482.6  2923.75
482.5  2917.5
482.4  2878.75
482.3  2872.5
482.2  2802.5
482.1  2902.5
482  2901.25
481.9  2870
481.8  2932.5
481.7  2985
481.6  2858.75
481.5  2878.75
481.4  2848.75
481.3  2910
481.2  2912.5
481.1  2903.75
481  2988.75
480.9  2998.75
480.8  2911.25
480.7  2963.75
480.6  2882.5
480.5  2851.25
480.4  2966.25
480.3  2898.75
480.2  2907.5
480.1  2927.5
480  2897.5

# Region:            O1s
# Acquisition Date:  09/15/22 21:17:30 UTC
# Analysis Method:   XPS
# Analyzer:          Phoibos 100 R6
# Analyzer Lens:     LargeArea:1.5kV
# Analyzer Slit:     1:0.2x20\B:open
# Scan Mode:         FixedAnalyzerTransmission
# Curves/Scan:       1
# Values/Curve:      111
# Dwell Time:        0.8
# Excitation Energy: 1486.61
# Binding Energy:    538
# Pass Energy:       30
# Bias Voltage:      90
# Detector Voltage:  2600
# Eff. Workfunction: 4.309
# Source:            X-Ray Dummy
# Comment:           
#
# Cycle: 0
# Number of Scans: 50
#
# Cycle: 0, Curve: 0
# Acquisition Date: 09/15/22 21:17:30 UTC
#
# ColumnLabels: energy counts/s
#
538  3242.15
537.9  3257.65
537.8  3233.425
537.7  3237.125
537.6  3238.875
537.5  3238.475
537.4  3245.375
537.3  3229.875
537.2  3252.725
537.1  3239.425
537  3235.475
536.9  3246.625
536.8  3247.125
536.7  3229.45
536.6  3257.925
536.5  3241.95
536.4  3251.25
536.3  3265.4
536.2  3248.5
536.1  3255.825
536  3248.025
535.9  3263.45
535.8  3267.425
535.7  3287.35
535.6  3294.575
535.5  3289.225
535.4  3296.625
535.3  3316.975
535.2  3322.25
535.1  3340.825
535  3349.725
534.9  3375.3
534.8  3394
534.7  3418.425
534.6  3459.225
534.5  3479.25
534.4  3514.65
534.3  3565.325
534.2  3576.15
534.1  3641.075
534  3652.975
533.9  3714.075
533.8  3754.7
533.7  3817.95
533.6  3856.225
533.5  3915.925
533.4  3983.05
533.3  4037.45
533.2  4081.45
533.1  4165.275
533  4235.3
532.9  4297.575
532.8  4368.3
532.7  4419.875
532.6  4488.6
532.5  4562.45
532.4  4663.275
532.3  4730.65
532.2  4808.375
532.1  4881.075
532  4972.525
531.9  5073.15
531.8  5150.475
531.7  5247.175
531.6  5339.25
531.5  5407.1
531.4  5468
531.3  5507.6
531.2  5568.025
531.1  5614.55
531  5609.2
530.9  5580.825
530.8  5520.05
530.7  5482.7
530.6  5384.7
530.5  5253.55
530.4  5117.15
530.3  4942.225
530.2  4789.8
530.1  4605.575
530  4467.225
529.9  4265.8
529.8  4114.225
529.7  3957.525
529.6  3804.775
529.5  3701.625
529.4  3598.8
529.3  3528.9
529.2  3464.675
529.1  3365.55
529  3337.625
528.9  3294.5
528.8  3238.65
528.7  3232.225
528.6  3206.05
528.5  3201.55
528.4  3174.9
528.3  3171.25
528.2  3151.1
528.1  3149.2
528  3132.975
527.9  3143.85
527.8  3136.05
527.7  3110.95
527.6  3112.275
527.5  3100.85
527.4  3101.175
527.3  3104.175
527.2  3119.95
527.1  3125.95
527  3108.4

# Region:            Si2p
# Acquisition Date:  09/15/22 21:18:53 UTC
# Analysis Method:   XPS
# Analyzer:          Phoibos 100 R6
# Analyzer Lens:     LargeArea:1.5kV
# Analyzer Slit:     1:0.2x20\B:open
# Scan Mode:         FixedAnalyzerTransmission
# Curves/Scan:       1
# Values/Curve:      101
# Dwell Time:        0.8
# Excitation Energy: 1486.61
# Binding Energy:    110
# Pass Energy:       30
# Bias Voltage:      90
# Detector Voltage:  2600
# Eff. Workfunction: 4.309
# Source:            X-Ray Dummy
# Comment:           
#
# Cycle: 0
# Number of Scans: 50
#
# Cycle: 0, Curve: 0
# Acquisition Date: 09/15/22 21:18:53 UTC
#
# ColumnLabels: energy counts/s
#
110  862.825
109.9  860.825
109.8  853.025
109.7  857.425
109.6  858.7
109.5  861.95
109.4  859.325
109.3  867.825
109.2  855.5
109.1  859.85
109  861.85
108.9  854.875
108.8  863.4
108.7  855.825
108.6  853.525
108.5  872.425
108.4  863.9
108.3  863.625
108.2  861.175
108.1  866.2
108  852.55
107.9  862.95
107.8  857.9
107.7  862.4
107.6  854.225
107.5  857.625
107.4  861.3
107.3  867.45
107.2  864.675
107.1  867.975
107  856.975
106.9  865.55
106.8  864.8
106.7  868.975
106.6  861.225
106.5  868.925
106.4  872.125
106.3  866.675
106.2  861.075
106.1  865.15
106  871.075
105.9  853.875
105.8  862.175
105.7  878.6
105.6  874.2
105.5  864.65
105.4  865.4
105.3  875.15
105.2  861.575
105.1  870.05
105  871.25
104.9  881.625
104.8  882.025
104.7  879.6
104.6  887.925
104.5  879.25
104.4  878.25
104.3  882.975
104.2  879.5
104.1  877.35
104  883
103.9  896.675
103.8  897.6
103.7  888.85
103.6  877.825
103.5  894.125
103.4  903.625
103.3  882.025
103.2  892.25
103.1  894.375
103  896.15
102.9  891.9
102.8  884.125
102.7  889.5
102.6  889.475
102.5  876.625
102.4  884.95
102.3  890.9
102.2  885.575
102.1  881.45
102  887.275
101.9  875.225
101.8  881.075
101.7  882.65
101.6  877.45
101.5  868.475
101.4  875.125
101.3  881.75
101.2  875.075
101.1  880.325
101  869.15
100.9  873.075
100.8  873.375
100.7  873.475
100.6  867.9
100.5  872.5
100.4  882.6
100.3  866.6
100.2  870.325
100.1  874.25
100  870.45

# Region:            N1s
# Acquisition Date:  09/15/22 23:02:47 UTC
# Analysis Method:   XPS
# Analyzer:          Phoibos 100 R6
# Analyzer Lens:     LargeArea:1.5kV
# Analyzer Slit:     1:0.2x20\B:open
# Scan Mode:         FixedAnalyzerTransmission
# Curves/Scan:       1
# Values/Curve:      121
# Dwell Time:        0.8
# Excitation Energy: 1486.61
# Binding Energy:    409
# Pass Energy:       30
# Bias Voltage:      90
# Detector Voltage:  2600
# Eff. Workfunction: 4.309
# Source:            X-Ray Dummy
# Comment:           
#
# Cycle: 0
# Number of Scans: 100
#
# Cycle: 0, Curve: 0
# Acquisition Date: 09/15/22 23:02:47 UTC
#
# ColumnLabels: energy counts/s
#
409  987.2625
408.9  988.625
408.8  985.725
408.7  982.5625
408.6  990.875
408.5  982.8
408.4  992.5
408.3  983.925
408.2  996.5625
408.1  987.3
408  982.8
407.9  993.975
407.8  986.7
407.7  985.5625
407.6  982.2125
407.5  983.775
407.4  984.9125
407.3  986.325
407.2  983.275
407.1  987.7375
407  981.8875
406.9  983.1125
406.8  982.475
406.7  987.7625
406.6  988.6875
406.5  988.6375
406.4  990.25
406.3  989.9625
406.2  993.2
406.1  990.675
406  984.5375
405.9  987.525
405.8  987.2
405.7  993.675
405.6  988.3375
405.5  987.425
405.4  987.85
405.3  986.325
405.2  987.3625
405.1  990.2375
405  989.8375
404.9  992.7875
404.8  989.775
404.7  990.7625
404.6  996.7625
404.5  992.45
404.4  994.675
404.3  988.375
404.2  990.05
404.1  993.7125
404  991.5125
403.9  989.55
403.8  986.575
403.7  990.5125
403.6  994.1375
403.5  995.6375
403.4  993.1625
403.3  993.725
403.2  996.8125
403.1  994.275
403  996.6875
402.9  996.2875
402.8  999.8625
402.7  1005.475
402.6  1008.2375
402.5  1009.8125
402.4  1013.3625
402.3  1014.175
402.2  1016.1625
402.1  1020.725
402  1024.8875
401.9  1028.5125
401.8  1031.725
401.7  1037.4875
401.6  1030.9
401.5  1037.95
401.4  1043.6625
401.3  1044.95
401.2  1047.1875
401.1  1048.5
401  1053
400.9  1050.15
400.8  1055.4875
400.7  1052.75
400.6  1054.625
400.5  1052.2
400.4  1050.9125
400.3  1051.025
400.2  1049.2625
400.1  1047.6125
400  1040.625
399.9  1038.2125
399.8  1038.475
399.7  1038.9125
399.6  1031.35
399.5  1042.2375
399.4  1027.425
399.3  1022.85
399.2  1015.05
399.1  1009.9
399  1020
398.9  1016.7875
398.8  1006.25
398.7  999.3125
398.6  997.475
398.5  988.4875
398.4  990.4875
398.3  983.3625
398.2  988.5375
398.1  987.4375
398  980.9375
397.9  986.0875
397.8  983.175
397.7  979.45
397.6  973.7125
397.5  977
397.4  968.35
397.3  974.0375
397.2  969.8625
397.1  971.1875
397  970.3375

# Region:            Si2s
# Acquisition Date:  09/15/22 22:13:39 UTC
# Analysis Method:   XPS
# Analyzer:          Phoibos 100 R6
# Analyzer Lens:     LargeArea:1.5kV
# Analyzer Slit:     1:0.2x20\B:open
# Scan Mode:         FixedAnalyzerTransmission
# Curves/Scan:       1
# Values/Curve:      71
# Dwell Time:        0.8
# Excitation Energy: 1486.61
# Binding Energy:    157
# Pass Energy:       30
# Bias Voltage:      90
# Detector Voltage:  2600
# Eff. Workfunction: 4.309
# Source:            X-Ray Dummy
# Comment:           
#
# Cycle: 0
# Number of Scans: 70
#
# Cycle: 0, Curve: 0
# Acquisition Date: 09/15/22 22:13:39 UTC
#
# ColumnLabels: energy counts/s
#
157  895
156.9  888.39286
156.8  903.625
156.7  895.51786
156.6  894.92857
156.5  891.08929
156.4  897.58929
156.3  896.42857
156.2  900.26786
156.1  902.89286
156  899.46429
155.9  896.91071
155.8  888.35714
155.7  888.55357
155.6  889.03571
155.5  895.03571
155.4  891.83929
155.3  908.125
155.2  894.94643
155.1  900.03571
155  892.17857
154.9  905.78571
154.8  903.46429
154.7  902.83929
154.6  894.05357
154.5  896.67857
154.4  894.76786
154.3  899.94643
154.2  893.58929
154.1  893.21429
154  907.03571
153.9  895.48214
153.8  901.83929
153.7  896.67857
153.6  895.46429
153.5  889.66071
153.4  904.67857
153.3  891.30357
153.2  891.21429
153.1  891.03571
153  890.96429
152.9  889.53571
152.8  889.10714
152.7  886.57143
152.6  885.55357
152.5  886.25
152.4  881.60714
152.3  885.17857
152.2  885
152.1  882.89286
152  887.64286
151.9  891.25
151.8  882.39286
151.7  887.42857
151.6  879.875
151.5  884.71429
151.4  876.96429
151.3  875.53571
151.2  880.98214
151.1  877.05357
151  884.58929
150.9  880.25
150.8  879.05357
150.7  882.32143
150.6  883.44643
150.5  880.64286
150.4  879.73214
150.3  878.33929
150.2  880.60714
150.1  877.66071
150  880.03571

# Group:             overview_HD
#
# Region:            overview_HD
# Acquisition Date:  09/16/22 07:16:29 UTC
# Analysis Method:   XPS
# Analyzer:          Phoibos 100 R6
# Analyzer Lens:     LargeArea:1.5kV
# Analyzer Slit:     1:0.2x20\B:open
# Scan Mode:         FixedAnalyzerTransmission
# Curves/Scan:       1
# Values/Curve:      6021
# Dwell Time:        0.4
# Excitation Energy: 1486.61
# Binding Energy:    1200
# Pass Energy:       30
# Bias Voltage:      90
# Detector Voltage:  2600
# Eff. Workfunction: 4.309
# Source:            X-Ray Dummy
# Comment:           
#
# Cycle: 0
# Number of Scans: 12
#
# Cycle: 0, Curve: 0
# Acquisition Date: 09/16/22 07:16:29 UTC
#
# ColumnLabels: energy counts/s
#
1200  8528.75
1199.8  8526.4583
1199.6  8491.0417
1199.4  8547.7083
1199.2  8491.875
1199  8588.9583
1198.8  8596.6667
1198.6  8550.625
1198.4  8564.7917
1198.2  8552.2917
1198  8546.875
1197.8  8468.5417
1197.6  8529.375
1197.4  8523.75
1197.2  8498.3333
1197  8505.8333
1196.8  8544.375
1196.6  8567.5
1196.4  8593.75
1196.2  8562.7083
1196  8620.625
1195.8  8581.875
1195.6  8625.625
1195.4  8626.0417
1195.2  8627.0833
1195  8534.7917
1194.8  8556.4583
1194.6  8577.5
1194.4  8575.8333
1194.2  8519.5833
1194  8545.4167
1193.8  8597.7083
1193.6  8573.3333
1193.4  8567.9167
1193.2  8624.375
1193  8551.875
1192.8  8603.125
1192.6  8648.3333
1192.4  8515.4167
1192.2  8615.2083
1192  8590.2083
1191.8  8568.125
1191.6  8542.9167
1191.4  8616.4583
1191.2  8626.25
1191  8506.0417
1190.8  8529.1667
1190.6  8586.4583
1190.4  8596.875
1190.2  8520.8333
1190  8558.75
1189.8  8447.2917
1189.6  8473.9583
1189.4  8512.2917
1189.2  8443.5417
1189  8495
1188.8  8487.7083
1188.6  8445.625
1188.4  8433.75
1188.2  8480.4167
1188  8407.7083
1187.8  8392.0833
1187.6  8409.375
1187.4  8483.3333
1187.2  8383.5417
1187  8377.7083
1186.8  8463.9583
1186.6  8341.0417
1186.4  8375.625
1186.2  8405.8333
1186  8368.75
1185.8  8431.4583
1185.6  8411.875
1185.4  8376.875
1185.2  8314.1667
1185  8316.25
1184.8  8393.5417
1184.6  8352.9167
1184.4  8371.4583
1184.2  8324.375
1184  8411.25
1183.8  8365
1183.6  8332.5
1183.4  8343.5417
1183.2  8255.625
1183  8278.75
1182.8  8357.9167
1182.6  8300.4167
1182.4  8271.0417
1182.2  8319.5833
1182  8257.9167
1181.8  8240.625
1181.6  8194.5833
1181.4  8212.5
1181.2  8246.25
1181  8221.25
1180.8  8229.1667
1180.6  8221.4583
1180.4  8194.5833
1180.2  8157.0833
1180  8234.1667
1179.8  8285
1179.6  8281.25
1179.4  8180.625
1179.2  8217.2917
1179  8174.7917
1178.8  8260
1178.6  8170.625
1178.4  8245.8333
1178.2  8228.125
1178  8195.2083
1177.8  8157.2917
1177.6  8247.5
1177.4  8235.4167
1177.2  8177.5
1177  8210.2083
1176.8  8215
1176.6  8221.875
1176.4  8224.7917
1176.2  8274.7917
1176  8208.125
1175.8  8178.125
1175.6  8210.8333
1175.4  8228.5417
1175.2  8190
1175  8228.75
1174.8  8319.375
1174.6  8266.0417
1174.4  8172.2917
1174.2  8195.8333
1174  8145
1173.8  8188.75
1173.6  8185
1173.4  8188.5417
1173.2  8206.875
1173  8174.7917
1172.8  8282.9167
1172.6  8192.5
1172.4  8189.1667
1172.2  8133.75
1172  8227.7083
1171.8  8239.375
1171.6  8172.5
1171.4  8178.3333
1171.2  8210.8333
1171  8259.5833
1170.8  8252.2917
1170.6  8186.0417
1170.4  8206.875
1170.2  8204.1667
1170  8133.5417
1169.8  8194.375
1169.6  8192.0833
1169.4  8216.875
1169.2  8182.5
1169  8163.3333
1168.8  8201.4583
1168.6  8198.125
1168.4  8217.9167
1168.2  8200.2083
1168  8241.875
1167.8  8252.5
1167.6  8148.125
1167.4  8234.5833
1167.2  8138.75
1167  8111.875
1166.8  8178.9583
1166.6  8171.875
1166.4  8140
1166.2  8193.9583
1166  8200
1165.8  8175.625
1165.6  8214.5833
1165.4  8183.75
1165.2  8232.9167
1165  8213.3333
1164.8  8210.4167
1164.6  8143.125
1164.4  8176.875
1164.2  8122.2917
1164  8068.5417
1163.8  8134.1667
1163.6  8277.9167
1163.4  8159.375
1163.2  8160
1163  8114.1667
1162.8  8204.1667
1162.6  8190
1162.4  8121.25
1162.2  8129.7917
1162  8200
1161.8  8165.625
1161.6  8167.0833
1161.4  8112.7083
1161.2  8165.625
1161  8152.9167
1160.8  8172.7083
1160.6  8092.7083
1160.4  8210.8333
1160.2  8169.5833
1160  8085.2083
1159.8  8207.9167
1159.6  8134.7917
1159.4  8174.1667
1159.2  8128.125
1159  8143.75
1158.8  8221.25
1158.6  8126.6667
1158.4  8199.375
1158.2  8131.4583
1158  8069.7917
1157.8  8083.125
1157.6  8183.3333
1157.4  8136.875
1157.2  8099.7917
1157  8111.0417
1156.8  8083.125
1156.6  8075.2083
1156.4  8065
1156.2  8113.75
1156  8103.75
1155.8  8085.2083
1155.6  8131.6667
1155.4  8145
1155.2  8154.1667
1155  8105.2083
1154.8  8178.3333
1154.6  8156.25
1154.4  8091.25
1154.2  8085.2083
1154  8078.75
1153.8  8101.25
1153.6  8051.0417
1153.4  8107.2917
1153.2  8059.5833
1153  8066.875
1152.8  8036.4583
1152.6  8081.4583
1152.4  8126.25
1152.2  8130.625
1152  8112.0833
1151.8  8088.125
1151.6  8060.8333
1151.4  8066.875
1151.2  8014.5833
1151  8115.8333
1150.8  8015.4167
1150.6  8062.0833
1150.4  8042.5
1150.2  8045.4167
1150  8026.875
1149.8  8041.25
1149.6  8050
1149.4  8010.2083
1149.2  8083.75
1149  8071.25
1148.8  8061.25
1148.6  7994.5833
1148.4  8113.9583
1148.2  8066.0417
1148  7961.875
1147.8  7991.0417
1147.6  7998.9583
1147.4  7995.8333
1147.2  8039.375
1147  7951.25
1146.8  8005.2083
1146.6  8024.5833
1146.4  7966.25
1146.2  7998.75
1146  7949.375
1145.8  7983.5417
1145.6  7960.4167
1145.4  7986.25
1145.2  7916.0417
1145  8046.0417
1144.8  7951.4583
1144.6  7939.7917
1144.4  7963.75
1144.2  7974.375
1144  7903.9583
1143.8  7870.625
1143.6  7867.0833
1143.4  7921.4583
1143.2  7867.2917
1143  7920.2083
1142.8  7937.0833
1142.6  7825.2083
1142.4  7818.3333
1142.2  7836.4583
1142  7850.8333
1141.8  7828.125
1141.6  7811.6667
1141.4  7712.5
1141.2  7813.5417
1141  7704.5833
1140.8  7736.0417
1140.6  7719.7917
1140.4  7700.8333
1140.2  7717.9167
1140  7719.5833
1139.8  7701.6667
1139.6  7679.7917
1139.4  7666.0417
1139.2  7650.625
1139  7646.25
1138.8  7682.9167
1138.6  7625
1138.4  7579.1667
1138.2  7610.8333
1138  7724.1667
1137.8  7611.4583
1137.6  7635.625
1137.4  7582.5
1137.2  7497.0833
1137  7605.4167
1136.8  7541.4583
1136.6  7608.9583
1136.4  7589.375
1136.2  7511.0417
1136  7522.2917
1135.8  7535.625
1135.6  7510.4167
1135.4  7488.3333
1135.2  7441.875
1135  7498.75
1134.8  7468.3333
1134.6  7427.5
1134.4  7482.2917
1134.2  7466.25
1134  7472.5
1133.8  7443.9583
1133.6  7496.4583
1133.4  7432.9167
1133.2  7387.0833
1133  7442.2917
1132.8  7333.5417
1132.6  7423.125
1132.4  7359.375
1132.2  7431.6667
1132  7409.7917
1131.8  7415.8333
1131.6  7416.875
1131.4  7309.1667
1131.2  7388.3333
1131  7375.2083
1130.8  7351.25
1130.6  7333.5417
1130.4  7345.4167
1130.2  7374.5833
1130  7385.8333
1129.8  7392.5
1129.6  7383.3333
1129.4  7371.25
1129.2  7320.8333
1129  7267.0833
1128.8  7324.5833
1128.6  7391.0417
1128.4  7282.7083
1128.2  7325.625
1128  7322.7083
1127.8  7282.7083
1127.6  7309.1667
1127.4  7367.0833
1127.2  7236.25
1127  7341.875
1126.8  7332.2917
1126.6  7217.2917
1126.4  7310.8333
1126.2  7296.0417
1126  7314.1667
1125.8  7215.2083
1125.6  7306.6667
1125.4  7239.375
1125.2  7267.7083
1125  7284.1667
1124.8  7344.375
1124.6  7333.5417
1124.4  7381.6667
1124.2  7302.5
1124  7237.0833
1123.8  7345.4167
1123.6  7244.5833
1123.4  7310.2083
1123.2  7251.25
1123  7299.7917
1122.8  7240.2083
1122.6  7343.3333
1122.4  7290.2083
1122.2  7235.4167
1122  7308.3333
1121.8  7340.4167
1121.6  7367.9167
1121.4  7263.9583
1121.2  7313.75
1121  7304.375
1120.8  7308.9583
1120.6  7316.875
1120.4  7231.0417
1120.2  7223.3333
1120  7272.5
1119.8  7343.3333
1119.6  7346.6667
1119.4  7292.7083
1119.2  7320.8333
1119  7380.625
1118.8  7211.25
1118.6  7271.25
1118.4  7283.3333
1118.2  7258.3333
1118  7319.7917
1117.8  7293.125
1117.6  7299.5833
1117.4  7238.75
1117.2  7295.4167
1117  7281.4583
1116.8  7234.5833
1116.6  7264.375
1116.4  7267.0833
1116.2  7300
1116  7266.6667
1115.8  7270.4167
1115.6  7213.3333
1115.4  7327.2917
1115.2  7302.7083
1115  7299.7917
1114.8  7343.9583
1114.6  7310.4167
1114.4  7263.125
1114.2  7266.0417
1114  7302.0833
1113.8  7326.25
1113.6  7292.9167
1113.4  7325
1113.2  7342.9167
1113  7375.625
1112.8  7279.5833
1112.6  7318.3333
1112.4  7363.5417
1112.2  7369.1667
1112  7367.5
1111.8  7354.7917
1111.6  7322.0833
1111.4  7319.7917
1111.2  7329.375
1111  7252.0833
1110.8  7350.4167
1110.6  7313.125
1110.4  7305
1110.2  7368.5417
1110  7346.4583
1109.8  7330.8333
1109.6  7322.7083
1109.4  7401.6667
1109.2  7332.5
1109  7383.5417
1108.8  7388.75
1108.6  7370
1108.4  7313.9583
1108.2  7360.8333
1108  7293.75
1107.8  7352.7083
1107.6  7360.8333
1107.4  7366.0417
1107.2  7369.5833
1107  7305.4167
1106.8  7314.375
1106.6  7367.5
1106.4  7394.1667
1106.2  7269.5833
1106  7336.4583
1105.8  7279.7917
1105.6  7295.625
1105.4  7272.9167
1105.2  7387.0833
1105  7218.9583
1104.8  7288.125
1104.6  7318.5417
1104.4  7209.5833
1104.2  7268.75
1104  7318.125
1103.8  7356.4583
1103.6  7247.9167
1103.4  7280.625
1103.2  7269.7917
1103  7257.5
1102.8  7222.0833
1102.6  7261.0417
1102.4  7178.75
1102.2  7221.0417
1102  7200
1101.8  7176.0417
1101.6  7205.4167
1101.4  7223.125
1101.2  7263.75
1101  7234.5833
1100.8  7176.4583
1100.6  7124.7917
1100.4  7260
1100.2  7158.3333
1100  7131.0417
1099.8  7141.6667
1099.6  7134.375
1099.4  7073.3333
1099.2  7121.25
1099  7150.2083
1098.8  7168.3333
1098.6  7192.0833
1098.4  7088.3333
1098.2  7140.8333
1098  7148.5417
1097.8  7054.375
1097.6  7083.5417
1097.4  7039.375
1097.2  7067.2917
1097  7011.875
1096.8  7114.375
1096.6  7103.125
1096.4  7062.7083
1096.2  7091.6667
1096  7050.8333
1095.8  7049.5833
1095.6  7055.4167
1095.4  7122.9167
1095.2  7062.7083
1095  7096.875
1094.8  7098.125
1094.6  6982.5
1094.4  7111.4583
1094.2  7083.125
1094  7060.4167
1093.8  7086.875
1093.6  7079.7917
1093.4  7118.9583
1093.2  7111.0417
1093  7133.3333
1092.8  7150
1092.6  7171.0417
1092.4  7156.6667
1092.2  7138.9583
1092  7208.3333
1091.8  7126.25
1091.6  7274.5833
1091.4  7315.8333
1091.2  7378.5417
1091  7336.25
1090.8  7383.5417
1090.6  7416.875
1090.4  7440.4167
1090.2  7530.625
1090  7643.9583
1089.8  7655.2083
1089.6  7703.3333
1089.4  7814.375
1089.2  7902.2917
1089  7931.0417
1088.8  8022.5
1088.6  8143.125
1088.4  8183.5417
1088.2  8425.625
1088  8336.875
1087.8  8453.125
1087.6  8537.7083
1087.4  8610.2083
1087.2  8602.5
1087  8611.6667
1086.8  8618.5417
1086.6  8699.5833
1086.4  8636.875
1086.2  8623.3333
1086  8518.9583
1085.8  8614.5833
1085.6  8525.8333
1085.4  8479.5833
1085.2  8422.2917
1085  8284.5833
1084.8  8245.8333
1084.6  8007.7083
1084.4  8078.3333
1084.2  7908.5417
1084  7882.2917
1083.8  7783.3333
1083.6  7666.875
1083.4  7630.4167
1083.2  7621.6667
1083  7531.25
1082.8  7574.375
1082.6  7477.0833
1082.4  7420.625
1082.2  7441.875
1082  7391.0417
1081.8  7408.3333
1081.6  7450.2083
1081.4  7474.1667
1081.2  7507.2917
1081  7514.7917
1080.8  7460.4167
1080.6  7496.0417
1080.4  7556.4583
1080.2  7451.0417
1080  7436.25
1079.8  7590.4167
1079.6  7522.9167
1079.4  7448.125
1079.2  7338.75
1079  7397.5
1078.8  7348.3333
1078.6  7256.0417
1078.4  7193.9583
1078.2  7067.9167
1078  6983.5417
1077.8  6905.8333
1077.6  6794.1667
1077.4  6744.5833
1077.2  6709.1667
1077  6542.5
1076.8  6494.375
1076.6  6402.7083
1076.4  6363.5417
1076.2  6384.375
1076  6343.75
1075.8  6221.0417
1075.6  6281.6667
1075.4  6229.1667
1075.2  6108.5417
1075  6084.7917
1074.8  6050.2083
1074.6  6113.75
1074.4  6101.6667
1074.2  6086.25
1074  6032.9167
1073.8  6132.0833
1073.6  6098.9583
1073.4  6187.2917
1073.2  6128.3333
1073  6167.5
1072.8  6258.3333
1072.6  6223.5417
1072.4  6187.2917
1072.2  6233.5417
1072  6190
1071.8  6160.625
1071.6  6102.9167
1071.4  6061.4583
1071.2  6067.0833
1071  6014.1667
1070.8  5938.75
1070.6  6012.7083
1070.4  5969.5833
1070.2  5935.4167
1070  5950.2083
1069.8  5921.25
1069.6  5970.8333
1069.4  5952.7083
1069.2  5897.9167
1069  5826.6667
1068.8  5913.5417
1068.6  5917.5
1068.4  5878.9583
1068.2  5854.5833
1068  5938.9583
1067.8  5840
1067.6  5978.9583
1067.4  5923.75
1067.2  5875.2083
1067  5998.3333
1066.8  5985
1066.6  5908.5417
1066.4  5883.9583
1066.2  5888.125
1066  5959.5833
1065.8  5943.5417
1065.6  5940.2083
1065.4  5919.1667
1065.2  5919.1667
1065  5882.9167
1064.8  5909.7917
1064.6  5906.0417
1064.4  5801.0417
1064.2  5941.0417
1064  5909.1667
1063.8  5952.5
1063.6  5933.5417
1063.4  5913.75
1063.2  5936.0417
1063  5958.5417
1062.8  5948.3333
1062.6  5929.1667
1062.4  5998.75
1062.2  5944.5833
1062  5948.3333
1061.8  5985.625
1061.6  5998.3333
1061.4  6005.4167
1061.2  6018.125
1061  6011.875
1060.8  6014.5833
1060.6  5979.375
1060.4  6001.875
1060.2  6010.4167
1060  6029.5833
1059.8  5967.0833
1059.6  5979.375
1059.4  5926.875
1059.2  5925
1059  5936.6667
1058.8  5857.0833
1058.6  5825.8333
1058.4  5846.4583
1058.2  5835
1058  5804.5833
1057.8  5775.2083
1057.6  5748.75
1057.4  5722.9167
1057.2  5713.3333
1057  5680.2083
1056.8  5671.4583
1056.6  5696.6667
1056.4  5663.75
1056.2  5612.5
1056  5677.5
1055.8  5666.25
1055.6  5677.5
1055.4  5691.875
1055.2  5701.6667
1055  5725.4167
1054.8  5664.1667
1054.6  5655.625
1054.4  5714.375
1054.2  5682.7083
1054  5672.2917
1053.8  5710
1053.6  5719.1667
1053.4  5689.1667
1053.2  5674.7917
1053  5670.2083
1052.8  5663.9583
1052.6  5687.2917
1052.4  5687.9167
1052.2  5663.9583
1052  5658.9583
1051.8  5579.375
1051.6  5658.3333
1051.4  5558.125
1051.2  5611.4583
1051  5569.1667
1050.8  5558.75
1050.6  5519.1667
1050.4  5518.9583
1050.2  5451.25
1050  5530.8333
1049.8  5521.6667
1049.6  5545.8333
1049.4  5565
1049.2  5537.9167
1049  5484.1667
1048.8  5480.4167
1048.6  5533.5417
1048.4  5477.0833
1048.2  5504.5833
1048  5480.2083
1047.8  5437.7083
1047.6  5453.9583
1047.4  5483.9583
1047.2  5485.2083
1047  5441.0417
1046.8  5478.5417
1046.6  5448.125
1046.4  5438.75
1046.2  5459.1667
1046  5457.7083
1045.8  5483.5417
1045.6  5533.125
1045.4  5418.3333
1045.2  5489.1667
1045  5417.0833
1044.8  5460.2083
1044.6  5424.7917
1044.4  5473.5417
1044.2  5464.7917
1044  5471.0417
1043.8  5437.7083
1043.6  5483.9583
1043.4  5423.75
1043.2  5435.2083
1043  5428.9583
1042.8  5472.2917
1042.6  5445.625
1042.4  5428.75
1042.2  5441.6667
1042  5437.7083
1041.8  5499.375
1041.6  5385.2083
1041.4  5447.5
1041.2  5501.25
1041  5484.1667
1040.8  5450.2083
1040.6  5469.5833
1040.4  5398.75
1040.2  5469.375
1040  5469.7917
1039.8  5471.25
1039.6  5431.4583
1039.4  5430.625
1039.2  5442.5
1039  5432.2917
1038.8  5405.4167
1038.6  5454.7917
1038.4  5472.9167
1038.2  5427.9167
1038  5482.7083
1037.8  5414.1667
1037.6  5454.5833
1037.4  5462.7083
1037.2  5431.4583
1037  5465.4167
1036.8  5432.5
1036.6  5438.9583
1036.4  5451.6667
1036.2  5440
1036  5441.4583
1035.8  5515.625
1035.6  5470
1035.4  5469.5833
1035.2  5536.6667
1035  5489.375
1034.8  5500
1034.6  5407.9167
1034.4  5488.75
1034.2  5505.625
1034  5457.9167
1033.8  5441.0417
1033.6  5541.0417
1033.4  5463.125
1033.2  5490.4167
1033  5490.4167
1032.8  5493.9583
1032.6  5428.3333
1032.4  5511.875
1032.2  5446.6667
1032  5460.8333
1031.8  5437.0833
1031.6  5459.7917
1031.4  5467.9167
1031.2  5431.875
1031  5381.4583
1030.8  5443.75
1030.6  5505.2083
1030.4  5446.0417
1030.2  5461.6667
1030  5440.4167
1029.8  5447.9167
1029.6  5433.5417
1029.4  5441.6667
1029.2  5451.875
1029  5507.2917
1028.8  5461.875
1028.6  5462.2917
1028.4  5462.9167
1028.2  5464.5833
1028  5449.5833
1027.8  5455.625
1027.6  5382.5
1027.4  5496.25
1027.2  5448.3333
1027  5474.375
1026.8  5531.875
1026.6  5498.9583
1026.4  5485.2083
1026.2  5459.1667
1026  5426.875
1025.8  5420.4167
1025.6  5467.0833
1025.4  5518.9583
1025.2  5489.7917
1025  5484.5833
1024.8  5442.2917
1024.6  5507.7083
1024.4  5420.2083
1024.2  5499.5833
1024  5474.7917
1023.8  5480.4167
1023.6  5483.75
1023.4  5558.9583
1023.2  5556.875
1023  5470.4167
1022.8  5531.6667
1022.6  5536.25
1022.4  5462.0833
1022.2  5478.5417
1022  5538.75
1021.8  5470.4167
1021.6  5481.0417
1021.4  5482.2917
1021.2  5469.7917
1021  5513.125
1020.8  5515.625
1020.6  5481.0417
1020.4  5507.7083
1020.2  5489.5833
1020  5492.5
1019.8  5515.8333
1019.6  5467.9167
1019.4  5565.2083
1019.2  5444.5833
1019  5566.875
1018.8  5447.9167
1018.6  5536.875
1018.4  5437.5
1018.2  5472.0833
1018  5499.1667
1017.8  5440
1017.6  5560.8333
1017.4  5498.5417
1017.2  5543.5417
1017  5544.1667
1016.8  5492.9167
1016.6  5497.7083
1016.4  5531.0417
1016.2  5446.875
1016  5459.5833
1015.8  5467.9167
1015.6  5485
1015.4  5478.75
1015.2  5527.7083
1015  5526.4583
1014.8  5545
1014.6  5448.3333
1014.4  5505.4167
1014.2  5509.1667
1014  5479.7917
1013.8  5481.25
1013.6  5542.0833
1013.4  5494.7917
1013.2  5508.75
1013  5519.5833
1012.8  5503.125
1012.6  5578.3333
1012.4  5516.25
1012.2  5547.2917
1012  5600.625
1011.8  5491.6667
1011.6  5506.25
1011.4  5510.625
1011.2  5468.9583
1011  5438.3333
1010.8  5564.5833
1010.6  5531.875
1010.4  5532.0833
1010.2  5505
1010  5535.625
1009.8  5534.375
1009.6  5496.6667
1009.4  5511.25
1009.2  5514.7917
1009  5489.1667
1008.8  5513.125
1008.6  5511.0417
1008.4  5471.25
1008.2  5495
1008  5472.5
1007.8  5536.6667
1007.6  5517.7083
1007.4  5590.2083
1007.2  5498.75
1007  5436.4583
1006.8  5505.4167
1006.6  5510.2083
1006.4  5500.2083
1006.2  5401.875
1006  5455
1005.8  5473.75
1005.6  5482.5
1005.4  5489.1667
1005.2  5450.625
1005  5525.2083
1004.8  5492.9167
1004.6  5473.5417
1004.4  5438.9583
1004.2  5483.125
1004  5527.0833
1003.8  5502.7083
1003.6  5529.375
1003.4  5498.75
1003.2  5514.5833
1003  5473.9583
1002.8  5465.625
1002.6  5490
1002.4  5524.375
1002.2  5568.9583
1002  5516.4583
1001.8  5505.8333
1001.6  5556.4583
1001.4  5590.4167
1001.2  5554.1667
1001  5573.75
1000.8  5540.4167
1000.6  5614.375
1000.4  5560.4167
1000.2  5594.7917
1000  5601.4583
999.8  5605.4167
999.6  5551.25
999.4  5601.0417
999.2  5561.875
999  5515.2083
998.8  5635.4167
998.6  5582.0833
998.4  5601.6667
998.2  5687.0833
998  5613.3333
997.8  5584.5833
997.6  5580.625
997.4  5628.125
997.2  5650.2083
997  5597.2917
996.8  5709.375
996.6  5629.7917
996.4  5643.9583
996.2  5618.3333
996  5683.125
995.8  5673.5417
995.6  5713.125
995.4  5689.375
995.2  5643.5417
995  5716.25
994.8  5615.2083
994.6  5663.125
994.4  5687.5
994.2  5655.2083
994  5603.125
993.8  5701.4583
993.6  5623.125
993.4  5564.375
993.2  5549.7917
993  5542.7083
992.8  5538.125
992.6  5473.5417
992.4  5525.625
992.2  5460.625
992  5534.1667
991.8  5455
991.6  5447.9167
991.4  5463.9583
991.2  5471.4583
991  5461.875
990.8  5509.375
990.6  5444.7917
990.4  5530
990.2  5446.25
990  5436.4583
989.8  5425.2083
989.6  5390.4167
989.4  5431.6667
989.2  5393.75
989  5470.625
988.8  5366.0417
988.6  5416.4583
988.4  5404.5833
988.2  5422.9167
988  5376.0417
987.8  5414.1667
987.6  5368.75
987.4  5386.6667
987.2  5300.8333
987  5384.7917
986.8  5350.8333
986.6  5383.5417
986.4  5371.875
986.2  5350.4167
986  5340.625
985.8  5327.2917
985.6  5291.4583
985.4  5336.25
985.2  5346.25
985  5337.9167
984.8  5310.2083
984.6  5314.375
984.4  5338.3333
984.2  5301.6667
984  5358.125
983.8  5295.8333
983.6  5346.25
983.4  5379.375
983.2  5276.25
983  5318.75
982.8  5357.5
982.6  5375
982.4  5341.6667
982.2  5334.1667
982  5281.0417
981.8  5341.4583
981.6  5376.25
981.4  5325.8333
981.2  5357.2917
981  5357.5
980.8  5336.6667
980.6  5461.0417
980.4  5446.6667
980.2  5403.5417
980  5410
979.8  5471.6667
979.6  5420.625
979.4  5493.125
979.2  5455.8333
979  5513.9583
978.8  5534.375
978.6  5525.4167
978.4  5632.0833
978.2  5608.9583
978  5603.75
977.8  5644.5833
977.6  5665.625
977.4  5776.6667
977.2  5785.4167
977  5825.2083
976.8  5895.4167
976.6  5928.9583
976.4  5993.5417
976.2  5983.125
976  6069.375
975.8  6110.4167
975.6  6089.7917
975.4  6185
975.2  6185.8333
975  6169.7917
974.8  6140
974.6  6120.4167
974.4  6085.4167
974.2  6151.25
974  5983.125
973.8  5901.25
973.6  5830.4167
973.4  5809.5833
973.2  5776.6667
973  5696.25
972.8  5582.5
972.6  5596.6667
972.4  5520.8333
972.2  5469.375
972  5497.9167
971.8  5425
971.6  5408.5417
971.4  5356.0417
971.2  5407.2917
971  5367.5
970.8  5389.1667
970.6  5350.625
970.4  5242.0833
970.2  5273.125
970  5254.5833
969.8  5247.9167
969.6  5268.75
969.4  5211.25
969.2  5228.5417
969  5182.7083
968.8  5179.375
968.6  5118.9583
968.4  5151.6667
968.2  5063.125
968  5109.7917
967.8  5143.5417
967.6  5088.3333
967.4  5101.25
967.2  5045.625
967  5065
966.8  4978.125
966.6  5031.875
966.4  4990.4167
966.2  4984.7917
966  4967.7083
965.8  4930.625
965.6  4961.0417
965.4  4902.2917
965.2  4918.125
965  4909.1667
964.8  4915.2083
964.6  4878.125
964.4  4910
964.2  4858.125
964  4898.3333
963.8  4900
963.6  4841.6667
963.4  4874.375
963.2  4913.5417
963  4868.75
962.8  4897.0833
962.6  4876.25
962.4  4940.2083
962.2  4956.6667
962  4895
961.8  4890
961.6  4989.375
961.4  4826.4583
961.2  4836.25
961  4868.9583
960.8  4868.3333
960.6  4893.125
960.4  4874.7917
960.2  4790.4167
960  4864.5833
959.8  4891.4583
959.6  4772.7083
959.4  4944.5833
959.2  4824.7917
959  4835.2083
958.8  4803.9583
958.6  4849.1667
958.4  4897.0833
958.2  4866.25
958  4849.375
957.8  4794.375
957.6  4892.9167
957.4  4892.2917
957.2  4865.8333
957  4911.25
956.8  4776.0417
956.6  4895.2083
956.4  4898.75
956.2  4873.9583
956  4904.1667
955.8  4865
955.6  4908.125
955.4  4921.25
955.2  4875.4167
955  4887.7083
954.8  4834.7917
954.6  4826.6667
954.4  4866.4583
954.2  4899.5833
954  4821.0417
953.8  4826.4583
953.6  4856.875
953.4  4854.7917
953.2  4878.5417
953  4825
952.8  4864.1667
952.6  4815.2083
952.4  4800.4167
952.2  4851.25
952  4839.7917
951.8  4887.0833
951.6  4795.2083
951.4  4903.75
951.2  4812.0833
951  4858.9583
950.8  4851.25
950.6  4839.7917
950.4  4832.7083
950.2  4809.5833
950  4847.2917
949.8  4805.4167
949.6  4815.625
949.4  4817.9167
949.2  4834.7917
949  4893.3333
948.8  4807.0833
948.6  4851.6667
948.4  4821.875
948.2  4866.4583
948  4853.5417
947.8  4895
947.6  4836.4583
947.4  4889.1667
947.2  4896.6667
947  4810
946.8  4848.125
946.6  4853.75
946.4  4849.5833
946.2  4878.9583
946  4878.5417
945.8  4803.5417
945.6  4847.2917
945.4  4813.3333
945.2  4871.0417
945  4831.0417
944.8  4836.0417
944.6  4797.9167
944.4  4865.4167
944.2  4856.875
944  4859.1667
943.8  4838.5417
943.6  4852.9167
943.4  4791.6667
943.2  4847.2917
943  4820.2083
942.8  4820.2083
942.6  4898.125
942.4  4805
942.2  4791.0417
942  4871.25
941.8  4885.625
941.6  4885.4167
941.4  4856.875
941.2  4847.5
941  4872.0833
940.8  4792.9167
940.6  4868.3333
940.4  4913.3333
940.2  4864.375
940  4846.0417
939.8  4835.2083
939.6  4821.875
939.4  4839.5833
939.2  4901.0417
939  4910.8333
938.8  4867.2917
938.6  4823.9583
938.4  4866.4583
938.2  4871.4583
938  4869.7917
937.8  4795.8333
937.6  4882.2917
937.4  4883.125
937.2  4846.4583
937  4860.8333
936.8  4912.0833
936.6  4843.9583
936.4  4827.5
936.2  4878.3333
936  4925
935.8  4847.5
935.6  4926.875
935.4  4883.5417
935.2  4874.5833
935  4832.7083
934.8  4832.2917
934.6  4846.4583
934.4  4879.375
934.2  4838.75
934  4860.2083
933.8  4876.6667
933.6  4852.9167
933.4  4840.625
933.2  4851.25
933  4874.375
932.8  4864.375
932.6  4849.7917
932.4  4890.625
932.2  4882.7083
932  4839.5833
931.8  4832.9167
931.6  4820.8333
931.4  4796.25
931.2  4896.4583
931  4805.625
930.8  4884.375
930.6  4831.6667
930.4  4813.3333
930.2  4829.1667
930  4818.9583
929.8  4822.7083
929.6  4811.4583
929.4  4890.8333
929.2  4896.4583
929  4886.6667
928.8  4856.875
928.6  4843.9583
928.4  4867.0833
928.2  4839.1667
928  4797.2917
927.8  4889.7917
927.6  4799.7917
927.4  4882.9167
927.2  4822.2917
927  4916.4583
926.8  4951.0417
926.6  4836.875
926.4  4860.625
926.2  4830.8333
926  4807.7083
925.8  4797.9167
925.6  4873.75
925.4  4873.5417
925.2  4839.7917
925  4851.4583
924.8  4817.9167
924.6  4818.5417
924.4  4847.7083
924.2  4824.1667
924  4824.375
923.8  4876.0417
923.6  4767.9167
923.4  4860.8333
923.2  4798.125
923  4837.9167
922.8  4871.875
922.6  4858.125
922.4  4842.7083
922.2  4853.9583
922  4863.3333
921.8  4861.0417
921.6  4844.1667
921.4  4789.7917
921.2  4898.9583
921  4842.5
920.8  4832.5
920.6  4848.9583
920.4  4834.1667
920.2  4895.4167
920  4777.9167
919.8  4814.375
919.6  4865.8333
919.4  4832.5
919.2  4793.5417
919  4853.75
918.8  4791.0417
918.6  4826.875
918.4  4891.875
918.2  4743.125
918  4841.4583
917.8  4793.75
917.6  4873.75
917.4  4795
917.2  4845.2083
917  4792.0833
916.8  4832.9167
916.6  4856.6667
916.4  4844.1667
916.2  4762.0833
916  4827.2917
915.8  4819.1667
915.6  4840
915.4  4840.625
915.2  4821.0417
915  4825
914.8  4820
914.6  4838.125
914.4  4832.2917
914.2  4814.1667
914  4763.5417
913.8  4810.8333
913.6  4788.9583
913.4  4777.9167
913.2  4843.125
913  4853.75
912.8  4889.1667
912.6  4794.1667
912.4  4814.1667
912.2  4779.375
912  4813.5417
911.8  4745
911.6  4777.0833
911.4  4845
911.2  4806.875
911  4792.0833
910.8  4852.7083
910.6  4763.3333
910.4  4852.5
910.2  4824.1667
910  4826.0417
909.8  4814.1667
909.6  4790.4167
909.4  4840
909.2  4862.5
909  4818.3333
908.8  4846.875
908.6  4831.25
908.4  4873.5417
908.2  4888.3333
908  4788.75
907.8  4817.5
907.6  4825.4167
907.4  4799.375
907.2  4849.375
907  4829.5833
906.8  4833.75
906.6  4787.9167
906.4  4772.0833
906.2  4776.25
906  4824.1667
905.8  4782.7083
905.6  4832.5
905.4  4834.375
905.2  4798.9583
905  4798.125
904.8  4814.7917
904.6  4870.625
904.4  4809.5833
904.2  4835.8333
904  4840.625
903.8  4752.9167
903.6  4797.0833
903.4  4787.7083
903.2  4784.5833
903  4791.25
902.8  4816.6667
902.6  4829.375
902.4  4825.625
902.2  4798.9583
902  4888.5417
901.8  4848.3333
901.6  4875.625
901.4  4829.1667
901.2  4798.125
901  4826.25
900.8  4776.875
900.6  4835.4167
900.4  4825.8333
900.2  4825.8333
900  4830
899.8  4776.0417
899.6  4832.5
899.4  4777.2917
899.2  4821.875
899  4794.7917
898.8  4818.75
898.6  4811.0417
898.4  4780.625
898.2  4893.75
898  4838.75
897.8  4887.9167
897.6  4850.2083
897.4  4773.125
897.2  4809.5833
897  4825.4167
896.8  4842.0833
896.6  4824.5833
896.4  4757.9167
896.2  4833.9583
896  4747.2917
895.8  4801.0417
895.6  4790.625
895.4  4811.875
895.2  4764.7917
895  4837.9167
894.8  4853.9583
894.6  4781.25
894.4  4831.0417
894.2  4764.5833
894  4852.9167
893.8  4760.8333
893.6  4766.0417
893.4  4778.9583
893.2  4844.7917
893  4791.4583
892.8  4837.5
892.6  4853.3333
892.4  4762.5
892.2  4799.5833
892  4814.1667
891.8  4778.5417
891.6  4820.4167
891.4  4845.2083
891.2  4834.7917
891  4826.6667
890.8  4737.2917
890.6  4821.6667
890.4  4749.1667
890.2  4779.1667
890  4820.625
889.8  4798.125
889.6  4824.5833
889.4  4864.7917
889.2  4781.25
889  4820.4167
888.8  4760.4167
888.6  4817.0833
888.4  4771.6667
888.2  4801.0417
888  4821.25
887.8  4797.7083
887.6  4831.0417
887.4  4759.1667
887.2  4783.9583
887  4852.0833
886.8  4860.8333
886.6  4801.4583
886.4  4830
886.2  4743.9583
886  4760.8333
885.8  4783.5417
885.6  4786.6667
885.4  4857.2917
885.2  4743.9583
885  4853.9583
884.8  4791.6667
884.6  4811.0417
884.4  4789.7917
884.2  4828.3333
884  4779.5833
883.8  4770
883.6  4740.625
883.4  4815.8333
883.2  4827.7083
883  4781.0417
882.8  4817.7083
882.6  4772.9167
882.4  4762.0833
882.2  4739.375
882  4744.375
881.8  4794.5833
881.6  4780.4167
881.4  4797.0833
881.2  4735.625
881  4723.9583
880.8  4741.4583
880.6  4803.9583
880.4  4780
880.2  4730.625
880  4769.1667
879.8  4772.7083
879.6  4781.875
879.4  4781.6667
879.2  4777.9167
879  4774.5833
878.8  4715.8333
878.6  4803.3333
878.4  4719.5833
878.2  4787.0833
878  4722.7083
877.8  4769.7917
877.6  4778.9583
877.4  4772.0833
877.2  4776.4583
877  4792.0833
876.8  4797.9167
876.6  4733.5417
876.4  4715
876.2  4741.6667
876  4703.125
875.8  4725.2083
875.6  4769.7917
875.4  4765.8333
875.2  4776.25
875  4779.1667
874.8  4775.8333
874.6  4752.9167
874.4  4784.1667
874.2  4783.75
874  4823.9583
873.8  4777.2917
873.6  4774.7917
873.4  4801.25
873.2  4782.5
873  4782.7083
872.8  4774.375
872.6  4729.7917
872.4  4760.2083
872.2  4787.7083
872  4771.4583
871.8  4751.25
871.6  4675
871.4  4800.2083
871.2  4784.375
871  4721.6667
870.8  4788.3333
870.6  4682.0833
870.4  4694.7917
870.2  4763.75
870  4668.125
869.8  4773.9583
869.6  4827.0833
869.4  4785
869.2  4737.9167
869  4778.9583
868.8  4734.375
868.6  4737.7083
868.4  4767.7083
868.2  4777.2917
868  4751.6667
867.8  4733.9583
867.6  4758.75
867.4  4732.2917
867.2  4750.8333
867  4782.2917
866.8  4785.625
866.6  4793.5417
866.4  4755.625
866.2  4759.7917
866  4690.8333
865.8  4749.1667
865.6  4783.3333
865.4  4720
865.2  4807.5
865  4731.875
864.8  4734.5833
864.6  4756.6667
864.4  4700.625
864.2  4760.4167
864  4772.0833
863.8  4754.5833
863.6  4706.4583
863.4  4687.9167
863.2  4704.375
863  4726.6667
862.8  4742.0833
862.6  4767.5
862.4  4777.5
862.2  4798.125
862  4772.9167
861.8  4753.75
861.6  4678.125
861.4  4769.1667
861.2  4762.0833
861  4747.2917
860.8  4816.25
860.6  4725.625
860.4  4774.1667
860.2  4732.9167
860  4771.25
859.8  4764.375
859.6  4763.5417
859.4  4806.25
859.2  4731.875
859  4742.7083
858.8  4678.9583
858.6  4730
858.4  4724.1667
858.2  4770
858  4830.4167
857.8  4762.9167
857.6  4795.625
857.4  4733.125
857.2  4667.2917
857  4754.7917
856.8  4787.9167
856.6  4762.7083
856.4  4757.2917
856.2  4773.5417
856  4786.6667
855.8  4802.0833
855.6  4824.7917
855.4  4764.375
855.2  4801.6667
855  4787.2917
854.8  4776.4583
854.6  4755.4167
854.4  4758.75
854.2  4767.9167
854  4757.5
853.8  4750.2083
853.6  4771.0417
853.4  4717.0833
853.2  4797.0833
853  4781.0417
852.8  4800
852.6  4821.25
852.4  4777.9167
852.2  4757.2917
852  4728.75
851.8  4724.1667
851.6  4763.75
851.4  4781.0417
851.2  4770.8333
851  4733.125
850.8  4687.5
850.6  4809.1667
850.4  4767.7083
850.2  4772.2917
850  4786.4583
849.8  4810.625
849.6  4811.0417
849.4  4743.9583
849.2  4723.125
849  4797.5
848.8  4744.5833
848.6  4806.0417
848.4  4706.875
848.2  4712.2917
848  4795.4167
847.8  4757.7083
847.6  4760
847.4  4720.8333
847.2  4770.625
847  4780.4167
846.8  4793.3333
846.6  4776.25
846.4  4749.7917
846.2  4687.2917
846  4735.4167
845.8  4705
845.6  4758.125
845.4  4740.8333
845.2  4760
845  4850
844.8  4748.3333
844.6  4784.375
844.4  4787.2917
844.2  4746.25
844  4735.2083
843.8  4817.2917
843.6  4757.0833
843.4  4715.2083
843.2  4740.2083
843  4768.75
842.8  4687.9167
842.6  4705.2083
842.4  4746.875
842.2  4748.3333
842  4760.625
841.8  4742.9167
841.6  4763.75
841.4  4705.625
841.2  4733.5417
841  4765.2083
840.8  4744.7917
840.6  4788.5417
840.4  4730.8333
840.2  4737.2917
840  4764.375
839.8  4784.1667
839.6  4808.9583
839.4  4732.2917
839.2  4791.875
839  4729.7917
838.8  4733.125
838.6  4724.7917
838.4  4762.7083
838.2  4760.625
838  4733.5417
837.8  4740
837.6  4761.25
837.4  4720.4167
837.2  4695
837  4753.125
836.8  4770
836.6  4713.5417
836.4  4781.25
836.2  4731.25
836  4649.375
835.8  4725.2083
835.6  4756.4583
835.4  4727.9167
835.2  4730.4167
835  4745.2083
834.8  4803.5417
834.6  4706.4583
834.4  4740.625
834.2  4845.8333
834  4789.375
833.8  4736.4583
833.6  4732.7083
833.4  4802.7083
833.2  4787.5
833  4846.0417
832.8  4804.1667
832.6  4850
832.4  4771.0417
832.2  4801.4583
832  4809.1667
831.8  4829.375
831.6  4883.125
831.4  4866.6667
831.2  4875.4167
831  4910.8333
830.8  4862.2917
830.6  4810
830.4  4863.75
830.2  4983.5417
830  4883.75
829.8  4923.125
829.6  4913.3333
829.4  4926.0417
829.2  4896.875
829  4936.25
828.8  4921.875
828.6  4912.2917
828.4  4926.6667
828.2  4930.4167
828  4906.0417
827.8  4941.4583
827.6  4876.0417
827.4  4872.2917
827.2  4918.5417
827  4917.2917
826.8  4921.0417
826.6  4867.7083
826.4  4871.6667
826.2  4866.25
826  4866.6667
825.8  4883.75
825.6  4851.875
825.4  4800
825.2  4840.4167
825  4868.75
824.8  4836.0417
824.6  4792.9167
824.4  4748.5417
824.2  4797.7083
824  4768.3333
823.8  4742.7083
823.6  4810.8333
823.4  4763.5417
823.2  4716.25
823  4695.4167
822.8  4749.7917
822.6  4764.5833
822.4  4749.1667
822.2  4725.4167
822  4762.0833
821.8  4662.0833
821.6  4681.875
821.4  4729.5833
821.2  4708.3333
821  4729.1667
820.8  4759.7917
820.6  4619.1667
820.4  4646.4583
820.2  4696.4583
820  4708.5417
819.8  4682.0833
819.6  4655.4167
819.4  4713.75
819.2  4613.3333
819  4683.125
818.8  4632.7083
818.6  4635.4167
818.4  4695.625
818.2  4699.375
818  4617.7083
817.8  4669.7917
817.6  4637.9167
817.4  4624.5833
817.2  4625
817  4705.625
816.8  4641.4583
816.6  4627.2917
816.4  4633.125
816.2  4687.5
816  4639.7917
815.8  4585.625
815.6  4614.1667
815.4  4667.2917
815.2  4579.1667
815  4665.625
814.8  4580.2083
814.6  4584.1667
814.4  4636.875
814.2  4643.125
814  4676.6667
813.8  4610.2083
813.6  4615.625
813.4  4594.5833
813.2  4592.2917
813  4617.9167
812.8  4599.375
812.6  4592.5
812.4  4631.0417
812.2  4580
812  4560.4167
811.8  4552.7083
811.6  4590.8333
811.4  4563.3333
811.2  4555.4167
811  4513.5417
810.8  4593.125
810.6  4625.625
810.4  4586.875
810.2  4553.5417
810  4541.4583
809.8  4567.0833
809.6  4523.5417
809.4  4588.9583
809.2  4602.9167
809  4539.375
808.8  4605.4167
808.6  4571.6667
808.4  4621.875
808.2  4595.625
808  4578.75
807.8  4528.5417
807.6  4635.8333
807.4  4569.375
807.2  4560.625
807  4633.125
806.8  4573.125
806.6  4528.5417
806.4  4578.75
806.2  4535.2083
806  4551.4583
805.8  4576.6667
805.6  4532.7083
805.4  4517.5
805.2  4585
805  4568.75
804.8  4532.5
804.6  4542.7083
804.4  4556.0417
804.2  4560
804  4543.125
803.8  4562.2917
803.6  4561.875
803.4  4625.8333
803.2  4596.6667
803  4529.1667
802.8  4518.3333
802.6  4537.2917
802.4  4499.7917
802.2  4552.2917
802  4539.7917
801.8  4548.75
801.6  4533.75
801.4  4553.3333
801.2  4531.25
801  4516.6667
800.8  4605.8333
800.6  4559.1667
800.4  4557.7083
800.2  4563.75
800  4547.5
799.8  4567.5
799.6  4549.375
799.4  4485.4167
799.2  4565.8333
799  4557.5
798.8  4592.0833
798.6  4537.2917
798.4  4540.4167
798.2  4588.125
798  4514.375
797.8  4523.75
797.6  4593.5417
797.4  4517.2917
797.2  4510
797  4576.25
796.8  4483.3333
796.6  4587.9167
796.4  4582.2917
796.2  4582.2917
796  4542.0833
795.8  4532.0833
795.6  4551.0417
795.4  4497.0833
795.2  4551.4583
795  4559.7917
794.8  4587.2917
794.6  4552.5
794.4  4536.6667
794.2  4509.1667
794  4535.8333
793.8  4553.3333
793.6  4556.875
793.4  4498.9583
793.2  4542.2917
793  4526.6667
792.8  4549.7917
792.6  4456.6667
792.4  4537.7083
792.2  4514.1667
792  4561.0417
791.8  4518.75
791.6  4505.8333
791.4  4547.0833
791.2  4536.25
791  4610
790.8  4464.5833
790.6  4502.7083
790.4  4529.7917
790.2  4566.875
790  4565
789.8  4521.6667
789.6  4547.0833
789.4  4547.2917
789.2  4638.3333
789  4573.9583
788.8  4515.4167
788.6  4504.1667
788.4  4527.5
788.2  4484.7917
788  4588.9583
787.8  4523.5417
787.6  4477.9167
787.4  4554.5833
787.2  4530.625
787  4529.7917
786.8  4593.3333
786.6  4520.8333
786.4  4547.2917
786.2  4550.4167
786  4540
785.8  4503.5417
785.6  4572.7083
785.4  4550.4167
785.2  4540.625
785  4542.9167
784.8  4535.2083
784.6  4528.75
784.4  4445
784.2  4561.0417
784  4525.2083
783.8  4562.2917
783.6  4540.4167
783.4  4575.2083
783.2  4526.6667
783  4530.8333
782.8  4515
782.6  4601.4583
782.4  4495.8333
782.2  4564.375
782  4512.5
781.8  4525.625
781.6  4562.5
781.4  4597.7083
781.2  4544.1667
781  4522.0833
780.8  4536.875
780.6  4555.4167
780.4  4537.7083
780.2  4559.1667
780  4560.4167
779.8  4466.6667
779.6  4605
779.4  4506.4583
779.2  4564.1667
779  4545.8333
778.8  4545.8333
778.6  4552.0833
778.4  4523.3333
778.2  4519.5833
778  4569.1667
777.8  4575
777.6  4550.8333
777.4  4533.9583
777.2  4563.3333
777  4505.2083
776.8  4563.75
776.6  4586.6667
776.4  4533.5417
776.2  4555
776  4511.4583
775.8  4516.6667
775.6  4526.6667
775.4  4563.9583
775.2  4517.0833
775  4505.8333
774.8  4539.5833
774.6  4494.1667
774.4  4519.7917
774.2  4533.9583
774  4509.375
773.8  4491.0417
773.6  4501.6667
773.4  4523.3333
773.2  4500.8333
773  4595.2083
772.8  4483.125
772.6  4535
772.4  4527.7083
772.2  4515.8333
772  4513.9583
771.8  4582.2917
771.6  4494.7917
771.4  4498.5417
771.2  4493.3333
771  4504.7917
770.8  4501.25
770.6  4539.7917
770.4  4545.4167
770.2  4518.9583
770  4508.5417
769.8  4557.0833
769.6  4475.2083
769.4  4525
769.2  4527.9167
769  4504.375
768.8  4507.0833
768.6  4477.0833
768.4  4548.3333
768.2  4501.875
768  4569.375
767.8  4561.4583
767.6  4530.2083
767.4  4511.25
767.2  4478.5417
767  4442.2917
766.8  4498.75
766.6  4517.7083
766.4  4475.625
766.2  4516.875
766  4517.2917
765.8  4563.3333
765.6  4515.2083
765.4  4540.625
765.2  4550.625
765  4518.5417
764.8  4528.3333
764.6  4550.2083
764.4  4515
764.2  4552.0833
764  4544.1667
763.8  4539.375
763.6  4514.375
763.4  4535.2083
763.2  4523.5417
763  4561.6667
762.8  4616.25
762.6  4584.5833
762.4  4494.1667
762.2  4539.5833
762  4597.2917
761.8  4560
761.6  4544.7917
761.4  4567.0833
761.2  4564.375
761  4603.75
760.8  4574.375
760.6  4615.2083
760.4  4586.25
760.2  4624.1667
760  4655.4167
759.8  4650
759.6  4625.625
759.4  4622.7083
759.2  4635.2083
759  4615.4167
758.8  4677.9167
758.6  4670.2083
758.4  4564.7917
758.2  4616.4583
758  4590
757.8  4595.8333
757.6  4591.4583
757.4  4614.1667
757.2  4525.625
757  4555.625
756.8  4580.625
756.6  4615.2083
756.4  4549.1667
756.2  4488.9583
756  4574.7917
755.8  4570.4167
755.6  4516.0417
755.4  4565.4167
755.2  4549.375
755  4510
754.8  4524.375
754.6  4546.0417
754.4  4507.7083
754.2  4478.9583
754  4494.7917
753.8  4545.4167
753.6  4511.0417
753.4  4463.5417
753.2  4479.7917
753  4514.7917
752.8  4550.4167
752.6  4488.9583
752.4  4516.4583
752.2  4548.9583
752  4497.7083
751.8  4480.2083
751.6  4491.0417
751.4  4477.5
751.2  4504.1667
751  4506.6667
750.8  4435.8333
750.6  4485.2083
750.4  4450.4167
750.2  4482.9167
750  4459.5833
749.8  4560
749.6  4480.2083
749.4  4473.75
749.2  4503.9583
749  4498.5417
748.8  4515.625
748.6  4461.4583
748.4  4517.0833
748.2  4486.875
748  4457.5
747.8  4461.6667
747.6  4495.4167
747.4  4466.875
747.2  4508.3333
747  4536.875
746.8  4471.0417
746.6  4469.1667
746.4  4476.25
746.2  4478.3333
746  4524.1667
745.8  4486.0417
745.6  4465.8333
745.4  4493.125
745.2  4500.2083
745  4506.0417
744.8  4535
744.6  4498.75
744.4  4501.25
744.2  4450.2083
744  4517.2917
743.8  4558.5417
743.6  4470.625
743.4  4505.625
743.2  4484.7917
743  4496.4583
742.8  4469.375
742.6  4527.2917
742.4  4545.2083
742.2  4493.9583
742  4454.1667
741.8  4533.125
741.6  4508.5417
741.4  4484.375
741.2  4482.5
741  4480
740.8  4474.7917
740.6  4495.625
740.4  4495.8333
740.2  4427.0833
740  4491.25
739.8  4517.5
739.6  4456.875
739.4  4518.3333
739.2  4537.2917
739  4503.5417
738.8  4488.5417
738.6  4451.4583
738.4  4531.0417
738.2  4485.8333
738  4443.3333
737.8  4482.2917
737.6  4526.25
737.4  4507.9167
737.2  4530.4167
737  4471.25
736.8  4516.4583
736.6  4602.7083
736.4  4485.625
736.2  4541.6667
736  4473.125
735.8  4478.9583
735.6  4551.6667
735.4  4437.2917
735.2  4503.9583
735  4542.9167
734.8  4524.375
734.6  4505.2083
734.4  4521.6667
734.2  4504.7917
734  4491.25
733.8  4546.4583
733.6  4506.25
733.4  4527.7083
733.2  4511.6667
733  4570.2083
732.8  4512.0833
732.6  4500.8333
732.4  4486.6667
732.2  4507.0833
732  4523.75
731.8  4507.9167
731.6  4496.4583
731.4  4531.25
731.2  4492.5
731  4513.125
730.8  4516.25
730.6  4515.2083
730.4  4541.25
730.2  4445.8333
730  4541.875
729.8  4504.1667
729.6  4537.2917
729.4  4542.7083
729.2  4470.8333
729  4455.8333
728.8  4480
728.6  4492.5
728.4  4543.9583
728.2  4492.5
728  4540.625
727.8  4506.25
727.6  4508.9583
727.4  4485.8333
727.2  4492.7083
727  4488.9583
726.8  4526.25
726.6  4486.6667
726.4  4455
726.2  4504.1667
726  4551.0417
725.8  4568.3333
725.6  4539.1667
725.4  4489.7917
725.2  4466.875
725  4553.9583
724.8  4488.5417
724.6  4478.5417
724.4  4554.5833
724.2  4501.4583
724  4520
723.8  4542.7083
723.6  4587.2917
723.4  4524.375
723.2  4511.0417
723  4548.9583
722.8  4531.25
722.6  4558.9583
722.4  4565.8333
722.2  4532.7083
722  4532.9167
721.8  4550.625
721.6  4508.5417
721.4  4537.5
721.2  4577.9167
721  4514.5833
720.8  4506.6667
720.6  4625.4167
720.4  4534.7917
720.2  4587.7083
720  4579.1667
719.8  4603.125
719.6  4614.7917
719.4  4582.9167
719.2  4582.2917
719  4633.125
718.8  4647.7083
718.6  4657.5
718.4  4641.25
718.2  4663.3333
718  4706.6667
717.8  4676.4583
717.6  4731.25
717.4  4677.2917
717.2  4667.7083
717  4710.4167
716.8  4699.1667
716.6  4713.5417
716.4  4667.5
716.2  4652.0833
716  4660.2083
715.8  4652.7083
715.6  4546.0417
715.4  4595.625
715.2  4520.4167
715  4574.375
714.8  4537.9167
714.6  4457.5
714.4  4483.75
714.2  4462.7083
714  4431.875
713.8  4486.0417
713.6  4465.625
713.4  4448.3333
713.2  4456.4583
713  4383.5417
712.8  4370.8333
712.6  4402.0833
712.4  4396.0417
712.2  4440
712  4343.3333
711.8  4404.5833
711.6  4391.0417
711.4  4362.2917
711.2  4449.375
711  4406.4583
710.8  4405.2083
710.6  4359.375
710.4  4384.7917
710.2  4429.1667
710  4411.4583
709.8  4417.7083
709.6  4424.375
709.4  4453.3333
709.2  4422.0833
709  4475.625
708.8  4435.2083
708.6  4546.4583
708.4  4507.9167
708.2  4525.625
708  4649.375
707.8  4684.1667
707.6  4723.125
707.4  4752.2917
707.2  4742.7083
707  4794.1667
706.8  4874.375
706.6  4991.0417
706.4  5001.0417
706.2  5169.1667
706  5212.2917
705.8  5225
705.6  5227.0833
705.4  5344.7917
705.2  5397.5
705  5465.4167
704.8  5422.5
704.6  5448.5417
704.4  5391.6667
704.2  5443.125
704  5394.1667
703.8  5312.9167
703.6  5271.25
703.4  5153.75
703.2  5031.875
703  5015
702.8  4907.5
702.6  4825.2083
702.4  4772.5
702.2  4692.7083
702  4638.9583
701.8  4565.8333
701.6  4563.3333
701.4  4468.9583
701.2  4401.0417
701  4442.2917
700.8  4421.0417
700.6  4365.8333
700.4  4330.2083
700.2  4291.4583
700  4271.0417
699.8  4312.0833
699.6  4322.5
699.4  4281.25
699.2  4268.5417
699  4255.625
698.8  4228.75
698.6  4291.25
698.4  4267.2917
698.2  4323.75
698  4226.25
697.8  4221.4583
697.6  4229.375
697.4  4264.5833
697.2  4248.5417
697  4288.3333
696.8  4242.7083
696.6  4281.875
696.4  4340.625
696.2  4252.5
696  4294.375
695.8  4265.2083
695.6  4216.0417
695.4  4311.6667
695.2  4274.7917
695  4289.375
694.8  4278.5417
694.6  4322.2917
694.4  4247.0833
694.2  4279.5833
694  4273.9583
693.8  4287.7083
693.6  4282.9167
693.4  4304.375
693.2  4255.2083
693  4284.1667
692.8  4264.1667
692.6  4268.75
692.4  4210
692.2  4237.0833
692  4248.75
691.8  4287.0833
691.6  4210
691.4  4213.75
691.2  4179.5833
691  4251.0417
690.8  4234.7917
690.6  4234.7917
690.4  4211.875
690.2  4218.5417
690  4182.2917
689.8  4198.5417
689.6  4201.25
689.4  4210.625
689.2  4198.75
689  4218.9583
688.8  4183.3333
688.6  4135.625
688.4  4224.375
688.2  4132.9167
688  4138.3333
687.8  4196.25
687.6  4142.2917
687.4  4192.2917
687.2  4258.125
687  4204.375
686.8  4195.8333
686.6  4202.5
686.4  4217.9167
686.2  4169.375
686  4161.25
685.8  4164.375
685.6  4205.2083
685.4  4194.5833
685.2  4234.375
685  4173.3333
684.8  4176.0417
684.6  4177.5
684.4  4153.9583
684.2  4116.0417
684  4123.125
683.8  4171.4583
683.6  4120
683.4  4146.875
683.2  4178.125
683  4109.5833
682.8  4118.125
682.6  4115
682.4  4167.7083
682.2  4101.6667
682  4093.9583
681.8  4098.9583
681.6  4078.125
681.4  4083.5417
681.2  4091.6667
681  4070.2083
680.8  4134.1667
680.6  4036.875
680.4  4039.1667
680.2  4091.875
680  4053.9583
679.8  4015
679.6  4046.25
679.4  4057.7083
679.2  4075.4167
679  4107.9167
678.8  4110
678.6  4061.0417
678.4  3997.9167
678.2  4027.2917
678  4073.5417
677.8  4044.5833
677.6  4021.0417
677.4  4017.5
677.2  4026.875
677  3935.8333
676.8  3982.7083
676.6  4021.0417
676.4  3941.875
676.2  3943.5417
676  3934.7917
675.8  3929.5833
675.6  3916.4583
675.4  3958.3333
675.2  3928.5417
675  3927.9167
674.8  3921.6667
674.6  3899.375
674.4  3891.875
674.2  3908.3333
674  3891.25
673.8  3938.5417
673.6  3953.75
673.4  3912.7083
673.2  3978.125
673  3960
672.8  3948.3333
672.6  3891.4583
672.4  3964.7917
672.2  3985
672  4001.875
671.8  3995.2083
671.6  4041.0417
671.4  4054.375
671.2  4084.7917
671  4172.0833
670.8  4180.2083
670.6  4261.0417
670.4  4292.7083
670.2  4378.75
670  4444.5833
669.8  4466.25
669.6  4610.2083
669.4  4661.875
669.2  4743.3333
669  4931.4583
668.8  5041.4583
668.6  5172.2917
668.4  5268.3333
668.2  5440.8333
668  5566.0417
667.8  5690.4167
667.6  5825.4167
667.4  5960.625
667.2  5985.625
667  6059.375
666.8  6061.6667
666.6  6100.4167
666.4  6018.9583
666.2  5976.4583
666  5977.9167
665.8  5746.6667
665.6  5602.0833
665.4  5453.3333
665.2  5277.2917
665  5150.8333
664.8  5033.5417
664.6  4781.875
664.4  4733.9583
664.2  4574.375
664  4460.2083
663.8  4358.125
663.6  4305.625
663.4  4202.9167
663.2  4108.75
663  4106.875
662.8  3980.625
662.6  3966.4583
662.4  3944.375
662.2  3914.5833
662  3868.5417
661.8  3861.25
661.6  3872.9167
661.4  3820.4167
661.2  3822.7083
661  3726.4583
660.8  3744.7917
660.6  3793.125
660.4  3743.9583
660.2  3713.3333
660  3778.5417
659.8  3688.9583
659.6  3678.9583
659.4  3742.9167
659.2  3697.0833
659  3809.1667
658.8  3742.5
658.6  3704.7917
658.4  3730.625
658.2  3745
658  3717.0833
657.8  3766.6667
657.6  3714.375
657.4  3747.0833
657.2  3754.7917
657  3717.9167
656.8  3725.625
656.6  3779.5833
656.4  3771.0417
656.2  3715.2083
656  3677.9167
655.8  3715.625
655.6  3719.7917
655.4  3718.125
655.2  3718.125
655  3672.0833
654.8  3641.875
654.6  3661.875
654.4  3618.3333
654.2  3615
654  3591.875
653.8  3576.0417
653.6  3572.7083
653.4  3561.4583
653.2  3556.6667
653  3530.4167
652.8  3537.0833
652.6  3563.9583
652.4  3502.5
652.2  3496.6667
652  3471.0417
651.8  3441.25
651.6  3515.625
651.4  3453.9583
651.2  3496.875
651  3464.1667
650.8  3454.375
650.6  3439.375
650.4  3482.2917
650.2  3463.3333
650  3485.4167
649.8  3477.0833
649.6  3427.0833
649.4  3442.2917
649.2  3452.7083
649  3420.2083
648.8  3453.5417
648.6  3462.2917
648.4  3468.125
648.2  3407.0833
648  3456.25
647.8  3443.5417
647.6  3402.2917
647.4  3416.4583
647.2  3407.5
647  3395.2083
646.8  3457.5
646.6  3415.8333
646.4  3437.5
646.2  3456.4583
646  3472.0833
645.8  3427.2917
645.6  3434.375
645.4  3394.7917
645.2  3380.625
645  3412.9167
644.8  3439.7917
644.6  3400.8333
644.4  3571.6667
644.2  3435.4167
644  3418.75
643.8  3397.0833
643.6  3443.3333
643.4  3374.7917
643.2  3368.75
643  3375.4167
642.8  3432.9167
642.6  3435.8333
642.4  3426.875
642.2  3382.2917
642  3418.125
641.8  3404.7917
641.6  3367.2917
641.4  3375.2083
641.2  3391.875
641  3442.5
640.8  3375
640.6  3413.75
640.4  3424.5833
640.2  3435
640  3393.9583
639.8  3395.8333
639.6  3416.875
639.4  3389.375
639.2  3398.9583
639  3479.375
638.8  3415.8333
638.6  3398.125
638.4  3418.9583
638.2  3399.375
638  3417.5
637.8  3388.3333
637.6  3447.7083
637.4  3373.75
637.2  3437.7083
637  3338.3333
636.8  3396.25
636.6  3404.1667
636.4  3438.5417
636.2  3381.0417
636  3366.25
635.8  3398.75
635.6  3424.375
635.4  3404.7917
635.2  3344.5833
635  3408.5417
634.8  3407.2917
634.6  3377.9167
634.4  3434.5833
634.2  3319.1667
634  3371.875
633.8  3439.5833
633.6  3404.5833
633.4  3386.875
633.2  3393.75
633  3362.2917
632.8  3390.2083
632.6  3393.125
632.4  3355.625
632.2  3404.1667
632  3396.0417
631.8  3417.0833
631.6  3386.875
631.4  3430.8333
631.2  3393.3333
631  3419.7917
630.8  3420.8333
630.6  3348.125
630.4  3371.25
630.2  3368.9583
630  3349.7917
629.8  3369.5833
629.6  3357.7083
629.4  3394.5833
629.2  3339.375
629  3411.4583
628.8  3356.0417
628.6  3409.375
628.4  3357.7083
628.2  3385.4167
628  3419.5833
627.8  3343.9583
627.6  3389.1667
627.4  3364.7917
627.2  3429.1667
627  3400.625
626.8  3409.375
626.6  3396.6667
626.4  3413.9583
626.2  3411.875
626  3328.5417
625.8  3325.4167
625.6  3361.6667
625.4  3356.25
625.2  3374.1667
625  3388.5417
624.8  3409.1667
624.6  3342.7083
624.4  3381.25
624.2  3380
624  3383.5417
623.8  3401.25
623.6  3372.7083
623.4  3363.3333
623.2  3374.1667
623  3397.0833
622.8  3400.4167
622.6  3314.7917
622.4  3356.875
622.2  3393.125
622  3401.4583
621.8  3343.9583
621.6  3366.4583
621.4  3362.7083
621.2  3375
621  3416.6667
620.8  3381.6667
620.6  3457.9167
620.4  3336.875
620.2  3402.7083
620  3434.375
619.8  3399.1667
619.6  3391.6667
619.4  3346.4583
619.2  3417.2917
619  3365.8333
618.8  3385.8333
618.6  3398.125
618.4  3380
618.2  3318.75
618  3366.0417
617.8  3405.8333
617.6  3342.5
617.4  3401.25
617.2  3405.625
617  3379.5833
616.8  3364.375
616.6  3354.1667
616.4  3295.2083
616.2  3350.4167
616  3364.1667
615.8  3376.4583
615.6  3340.8333
615.4  3339.5833
615.2  3390.8333
615  3442.2917
614.8  3378.75
614.6  3436.25
614.4  3422.5
614.2  3387.0833
614  3351.875
613.8  3367.9167
613.6  3392.5
613.4  3407.5
613.2  3391.0417
613  3354.5833
612.8  3358.75
612.6  3399.7917
612.4  3407.7083
612.2  3352.7083
612  3384.5833
611.8  3385.8333
611.6  3375
611.4  3429.375
611.2  3401.875
611  3348.9583
610.8  3358.3333
610.6  3392.9167
610.4  3346.875
610.2  3385.625
610  3419.1667
609.8  3354.1667
609.6  3347.9167
609.4  3385.2083
609.2  3407.2917
609  3371.4583
608.8  3395.2083
608.6  3449.375
608.4  3370.625
608.2  3347.5
608  3382.0833
607.8  3396.25
607.6  3385.2083
607.4  3430.625
607.2  3415.625
607  3390
606.8  3357.9167
606.6  3377.0833
606.4  3404.7917
606.2  3438.9583
606  3363.9583
605.8  3441.6667
605.6  3344.5833
605.4  3378.3333
605.2  3392.7083
605  3374.5833
604.8  3351.25
604.6  3362.0833
604.4  3421.6667
604.2  3394.1667
604  3415.625
603.8  3431.875
603.6  3403.3333
603.4  3399.5833
603.2  3451.4583
603  3418.75
602.8  3406.0417
602.6  3436.4583
602.4  3424.5833
602.2  3422.9167
602  3354.1667
601.8  3403.3333
601.6  3410.625
601.4  3366.875
601.2  3364.5833
601  3414.5833
600.8  3436.4583
600.6  3466.6667
600.4  3377.9167
600.2  3375
600  3401.25
599.8  3395.625
599.6  3426.0417
599.4  3399.375
599.2  3458.9583
599  3412.9167
598.8  3426.4583
598.6  3398.9583
598.4  3383.125
598.2  3408.75
598  3436.4583
597.8  3407.5
597.6  3447.0833
597.4  3437.9167
597.2  3422.7083
597  3406.4583
596.8  3385.2083
596.6  3407.0833
596.4  3417.0833
596.2  3424.5833
596  3392.5
595.8  3412.7083
595.6  3473.3333
595.4  3463.9583
595.2  3379.5833
595  3417.0833
594.8  3415.4167
594.6  3400.4167
594.4  3460.2083
594.2  3378.5417
594  3464.7917
593.8  3413.125
593.6  3398.3333
593.4  3420.8333
593.2  3384.7917
593  3406.6667
592.8  3420.4167
592.6  3407.9167
592.4  3384.1667
592.2  3413.125
592  3400.8333
591.8  3378.9583
591.6  3408.5417
591.4  3361.25
591.2  3393.5417
591  3370
590.8  3316.4583
590.6  3401.0417
590.4  3377.2917
590.2  3386.25
590  3406.25
589.8  3410.625
589.6  3424.7917
589.4  3364.7917
589.2  3431.875
589  3369.375
588.8  3375.8333
588.6  3430.2083
588.4  3382.0833
588.2  3359.1667
588  3442.5
587.8  3392.2917
587.6  3391.0417
587.4  3378.9583
587.2  3430.4167
587  3396.25
586.8  3423.5417
586.6  3392.5
586.4  3374.1667
586.2  3427.7083
586  3419.7917
585.8  3387.9167
585.6  3406.6667
585.4  3382.5
585.2  3393.75
585  3373.75
584.8  3426.0417
584.6  3393.5417
584.4  3409.1667
584.2  3424.7917
584  3400
583.8  3359.1667
583.6  3357.9167
583.4  3376.875
583.2  3411.0417
583  3426.0417
582.8  3415.625
582.6  3445.4167
582.4  3380.8333
582.2  3360.8333
582  3383.3333
581.8  3442.2917
581.6  3403.75
581.4  3417.2917
581.2  3403.5417
581  3421.6667
580.8  3389.1667
580.6  3407.2917
580.4  3408.125
580.2  3399.7917
580  3380.2083
579.8  3384.1667
579.6  3409.5833
579.4  3457.9167
579.2  3397.0833
579  3417.2917
578.8  3433.9583
578.6  3406.0417
578.4  3401.875
578.2  3453.3333
578  3411.6667
577.8  3414.1667
577.6  3408.5417
577.4  3448.5417
577.2  3423.5417
577  3412.2917
576.8  3442.9167
576.6  3440
576.4  3422.5
576.2  3388.75
576  3415.8333
575.8  3436.25
575.6  3438.3333
575.4  3388.9583
575.2  3421.6667
575  3407.2917
574.8  3385
574.6  3424.1667
574.4  3431.0417
574.2  3415.8333
574  3446.875
573.8  3429.7917
573.6  3409.375
573.4  3448.9583
573.2  3377.5
573  3428.75
572.8  3433.125
572.6  3466.875
572.4  3490.4167
572.2  3448.9583
572  3416.6667
571.8  3457.0833
571.6  3459.375
571.4  3456.4583
571.2  3462.7083
571  3458.75
570.8  3456.4583
570.6  3398.9583
570.4  3397.9167
570.2  3424.7917
570  3433.9583
569.8  3392.0833
569.6  3416.0417
569.4  3410.8333
569.2  3398.125
569  3397.7083
568.8  3395.625
568.6  3423.9583
568.4  3460.4167
568.2  3453.3333
568  3427.7083
567.8  3461.875
567.6  3354.5833
567.4  3447.5
567.2  3447.2917
567  3418.75
566.8  3435
566.6  3352.5
566.4  3406.25
566.2  3439.7917
566  3442.7083
565.8  3438.75
565.6  3442.7083
565.4  3367.9167
565.2  3438.9583
565  3393.3333
564.8  3446.0417
564.6  3427.7083
564.4  3405
564.2  3403.75
564  3393.9583
563.8  3421.4583
563.6  3483.5417
563.4  3388.9583
563.2  3455.4167
563  3428.125
562.8  3431.6667
562.6  3406.0417
562.4  3446.25
562.2  3441.0417
562  3423.3333
561.8  3399.1667
561.6  3439.375
561.4  3448.75
561.2  3447.9167
561  3425.2083
560.8  3430
560.6  3451.6667
560.4  3429.375
560.2  3423.125
560  3428.125
559.8  3382.7083
559.6  3444.7917
559.4  3479.375
559.2  3452.7083
559  3406.6667
558.8  3460.625
558.6  3488.125
558.4  3383.3333
558.2  3447.5
558  3426.6667
557.8  3452.5
557.6  3424.375
557.4  3427.7083
557.2  3417.0833
557  3471.875
556.8  3405.625
556.6  3460
556.4  3533.125
556.2  3527.2917
556  3488.9583
555.8  3451.875
555.6  3456.0417
555.4  3455.625
555.2  3506.6667
555  3476.25
554.8  3457.7083
554.6  3482.7083
554.4  3525.8333
554.2  3497.7083
554  3538.9583
553.8  3502.0833
553.6  3536.875
553.4  3472.5
553.2  3497.0833
553  3537.2917
552.8  3542.2917
552.6  3496.0417
552.4  3536.0417
552.2  3497.7083
552  3462.9167
551.8  3526.4583
551.6  3526.875
551.4  3446.25
551.2  3511.4583
551  3520.4167
550.8  3516.25
550.6  3524.5833
550.4  3527.5
550.2  3517.7083
550  3495.8333
549.8  3474.1667
549.6  3495
549.4  3485.4167
549.2  3551.4583
549  3457.9167
548.8  3529.375
548.6  3476.4583
548.4  3476.4583
548.2  3520.2083
548  3513.125
547.8  3522.2917
547.6  3485.4167
547.4  3497.0833
547.2  3486.6667
547  3475.4167
546.8  3479.5833
546.6  3475
546.4  3455
546.2  3461.6667
546  3465.2083
545.8  3383.75
545.6  3359.7917
545.4  3392.5
545.2  3457.2917
545  3426.875
544.8  3410.4167
544.6  3354.7917
544.4  3343.5417
544.2  3359.5833
544  3335
543.8  3363.125
543.6  3313.75
543.4  3313.9583
543.2  3328.9583
543  3284.375
542.8  3306.0417
542.6  3264.5833
542.4  3266.4583
542.2  3279.1667
542  3284.5833
541.8  3302.7083
541.6  3239.375
541.4  3230.8333
541.2  3305.2083
541  3311.4583
540.8  3264.7917
540.6  3290.625
540.4  3248.125
540.2  3263.125
540  3303.9583
539.8  3269.1667
539.6  3301.6667
539.4  3234.375
539.2  3233.75
539  3215.2083
538.8  3201.6667
538.6  3249.5833
538.4  3250
538.2  3261.875
538  3181.25
537.8  3201.6667
537.6  3252.2917
537.4  3211.875
537.2  3253.125
537  3266.25
536.8  3225.4167
536.6  3225.625
536.4  3304.375
536.2  3240.625
536  3212.7083
535.8  3260.4167
535.6  3253.125
535.4  3323.75
535.2  3348.75
535  3347.7083
534.8  3446.0417
534.6  3471.4583
534.4  3497.2917
534.2  3573.125
534  3633.75
533.8  3748.9583
533.6  3867.0833
533.4  3998.9583
533.2  4127.0833
533  4179.5833
532.8  4351.25
532.6  4502.2917
532.4  4625
532.2  4868.5417
532  5061.6667
531.8  5111.0417
531.6  5346.0417
531.4  5461.6667
531.2  5534.375
531  5564.7917
530.8  5512.5
530.6  5392.9167
530.4  5078.125
530.2  4737.5
530  4422.7083
529.8  4065.625
529.6  3803.125
529.4  3569.7917
529.2  3483.3333
529  3292.2917
528.8  3272.7083
528.6  3222.5
528.4  3195
528.2  3159.7917
528  3176.875
527.8  3133.75
527.6  3107.9167
527.4  3124.7917
527.2  3077.9167
527  3065
526.8  3091.875
526.6  3102.9167
526.4  3122.0833
526.2  3115.2083
526  3093.5417
525.8  3082.9167
525.6  3105.2083
525.4  3111.6667
525.2  3139.5833
525  3082.9167
524.8  3133.3333
524.6  3120.8333
524.4  3107.9167
524.2  3100.2083
524  3152.5
523.8  3137.5
523.6  3126.0417
523.4  3152.0833
523.2  3152.0833
523  3178.9583
522.8  3157.7083
522.6  3188.5417
522.4  3223.3333
522.2  3213.5417
522  3223.75
521.8  3212.9167
521.6  3278.9583
521.4  3270.2083
521.2  3290.8333
521  3281.25
520.8  3302.9167
520.6  3239.1667
520.4  3217.7083
520.2  3195.2083
520  3225
519.8  3176.0417
519.6  3196.0417
519.4  3195.625
519.2  3208.5417
519  3147.9167
518.8  3107.0833
518.6  3133.9583
518.4  3113.9583
518.2  3118.75
518  3091.0417
517.8  3073.75
517.6  3045.4167
517.4  3071.25
517.2  3086.0417
517  3101.4583
516.8  3030.8333
516.6  3084.375
516.4  3087.9167
516.2  3058.9583
516  3069.1667
515.8  3038.3333
515.6  3080.8333
515.4  3086.0417
515.2  3067.0833
515  3068.125
514.8  3032.0833
514.6  3098.3333
514.4  3060.2083
514.2  3066.875
514  3075.625
513.8  3062.9167
513.6  3118.9583
513.4  3073.3333
513.2  3097.2917
513  3072.7083
512.8  3017.7083
512.6  3040
512.4  3089.1667
512.2  3063.125
512  3073.3333
511.8  3075.625
511.6  3082.2917
511.4  3131.0417
511.2  3112.5
511  3115.8333
510.8  3101.25
510.6  3075.4167
510.4  3095.4167
510.2  3107.0833
510  3130.625
509.8  3085.4167
509.6  3093.75
509.4  3097.0833
509.2  3094.1667
509  3053.9583
508.8  3105.625
508.6  3066.4583
508.4  3127.7083
508.2  3073.75
508  3051.0417
507.8  3099.5833
507.6  3066.0417
507.4  3088.5417
507.2  3068.5417
507  3117.5
506.8  3030.8333
506.6  3087.2917
506.4  3103.5417
506.2  3062.2917
506  3077.5
505.8  3040.4167
505.6  3051.25
505.4  3103.3333
505.2  3050.2083
505  3014.7917
504.8  3052.9167
504.6  3068.125
504.4  3027.0833
504.2  3054.1667
504  3038.9583
503.8  3081.25
503.6  3045
503.4  3033.125
503.2  3047.9167
503  3039.1667
502.8  3042.2917
502.6  3049.5833
502.4  3001.875
502.2  3077.2917
502  3045.625
501.8  3052.2917
501.6  3021.6667
501.4  3081.0417
501.2  3068.5417
501  3022.2917
500.8  3039.375
500.6  3059.5833
500.4  3051.25
500.2  3023.3333
500  3047.0833
499.8  3093.125
499.6  3066.6667
499.4  3070
499.2  3080.8333
499  3165.625
498.8  3142.2917
498.6  3102.5
498.4  3158.75
498.2  3176.4583
498  3263.5417
497.8  3282.5
497.6  3301.25
497.4  3370.8333
497.2  3386.4583
497  3449.7917
496.8  3522.2917
496.6  3600.2083
496.4  3647.0833
496.2  3612.0833
496  3731.6667
495.8  3667.0833
495.6  3738.9583
495.4  3640
495.2  3585
495  3471.6667
494.8  3385.8333
494.6  3300
494.4  3188.75
494.2  3113.3333
494  3054.375
493.8  3035.8333
493.6  3034.7917
493.4  2944.7917
493.2  2961.4583
493  2942.0833
492.8  2951.875
492.6  2916.4583
492.4  3024.7917
492.2  2913.75
492  2877.9167
491.8  2941.0417
491.6  2921.25
491.4  2933.125
491.2  2942.2917
491  2952.0833
490.8  2970.625
490.6  2975.8333
490.4  2999.5833
490.2  3036.4583
490  3049.375
489.8  3064.375
489.6  3137.9167
489.4  3142.2917
489.2  3293.125
489  3339.7917
488.8  3433.75
488.6  3484.5833
488.4  3569.1667
488.2  3660.625
488  3791.0417
487.8  3856.875
487.6  3890.8333
487.4  3821.875
487.2  3914.7917
487  3813.9583
486.8  3813.3333
486.6  3655.4167
486.4  3552.0833
486.2  3427.0833
486  3290.8333
485.8  3208.3333
485.6  3095.8333
485.4  3085.8333
485.2  3020
485  3016.6667
484.8  2919.375
484.6  2965.625
484.4  2942.7083
484.2  2941.0417
484  2960.8333
483.8  2933.9583
483.6  2951.6667
483.4  2916.25
483.2  2939.7917
483  2922.5
482.8  2932.9167
482.6  2900.4167
482.4  2936.875
482.2  2941.4583
482  2902.5
481.8  2956.4583
481.6  2904.7917
481.4  2919.375
481.2  2968.5417
481  2916.25
480.8  2903.5417
480.6  2923.5417
480.4  2928.5417
480.2  2937.2917
480  2993.5417
479.8  2942.7083
479.6  2975.625
479.4  2947.9167
479.2  2988.3333
479  2976.875
478.8  2947.7083
478.6  2982.2917
478.4  2968.75
478.2  2979.5833
478  2996.875
477.8  3003.5417
477.6  3040.625
477.4  3008.75
477.2  3011.0417
477  3023.3333
476.8  2996.875
476.6  3031.25
476.4  3005.4167
476.2  2990.2083
476  3024.375
475.8  3009.5833
475.6  2957.9167
475.4  3021.6667
475.2  2990.4167
475  3020.4167
474.8  2993.5417
474.6  3028.5417
474.4  3057.9167
474.2  3053.125
474  3025.625
473.8  3036.25
473.6  3047.7083
473.4  3025.8333
473.2  3075.8333
473  3084.7917
472.8  3076.0417
472.6  3050.8333
472.4  3064.1667
472.2  3043.75
472  3046.6667
471.8  3088.5417
471.6  3154.7917
471.4  3055.2083
471.2  3060.625
471  2983.5417
470.8  2993.9583
470.6  3038.3333
470.4  3034.375
470.2  3007.9167
470  3058.3333
469.8  3063.5417
469.6  3005.4167
469.4  2982.2917
469.2  3036.6667
469  3001.875
468.8  2964.5833
468.6  2971.4583
468.4  3037.5
468.2  2973.9583
468  2967.9167
467.8  2988.75
467.6  2978.9583
467.4  3003.75
467.2  2975
467  2960
466.8  2937.0833
466.6  2937.7083
466.4  2984.375
466.2  2926.875
466  2938.125
465.8  2960
465.6  2944.375
465.4  2943.125
465.2  2949.5833
465  2968.9583
464.8  2942.5
464.6  2931.25
464.4  2913.75
464.2  2942.7083
464  2921.6667
463.8  2899.7917
463.6  2864.1667
463.4  2905
463.2  2859.1667
463  2807.2917
462.8  2873.9583
462.6  2818.125
462.4  2761.25
462.2  2753.3333
462  2698.5417
461.8  2694.1667
461.6  2685.8333
461.4  2706.4583
461.2  2641.25
461  2642.9167
460.8  2619.5833
460.6  2600.4167
460.4  2578.3333
460.2  2546.4583
460  2567.7083
459.8  2507.7083
459.6  2505.2083
459.4  2471.25
459.2  2464.7917
459  2449.1667
458.8  2428.5417
458.6  2397.5
458.4  2460.2083
458.2  2401.25
458  2380.625
457.8  2393.125
457.6  2354.5833
457.4  2384.375
457.2  2362.5
457  2423.125
456.8  2413.3333
456.6  2477.7083
456.4  2474.375
456.2  2537.9167
456  2654.375
455.8  2737.7083
455.6  2820.625
455.4  3053.125
455.2  3259.5833
455  3547.5
454.8  3837.2917
454.6  4203.3333
454.4  4640
454.2  5200.2083
454  5727.0833
453.8  6349.375
453.6  6873.5417
453.4  7422.7083
453.2  7740.625
453  7928.125
452.8  8046.4583
452.6  7698.125
452.4  7153.3333
452.2  6385.4167
452  5527.0833
451.8  4631.25
451.6  3843.5417
451.4  3168.75
451.2  2733.75
451  2448.9583
450.8  2235.625
450.6  2136.4583
450.4  1971.25
450.2  1969.1667
450  1933.3333
449.8  1917.5
449.6  1929.375
449.4  1948.125
449.2  1976.6667
449  2017.2917
448.8  2129.7917
448.6  2216.875
448.4  2373.5417
448.2  2499.375
448  2731.0417
447.8  3006.4583
447.6  3367.7083
447.4  3765.2083
447.2  4289.375
447  4958.9583
446.8  5636.6667
446.6  6412.2917
446.4  7312.2917
446.2  8101.4583
446  8864.1667
445.8  9627.5
445.6  10236.458
445.4  10380.417
445.2  10345.833
445  9905.2083
444.8  9028.3333
444.6  7862.9167
444.4  6612.5
444.2  5409.1667
444  4390.625
443.8  3648.9583
443.6  3036.875
443.4  2691.875
443.2  2457.2917
443  2316.875
442.8  2190.625
442.6  2057.2917
442.4  1962.7083
442.2  1860
442  1787.0833
441.8  1729.5833
441.6  1658.75
441.4  1628.5417
441.2  1607.9167
441  1548.9583
440.8  1497.7083
440.6  1518.3333
440.4  1460.8333
440.2  1408.5417
440  1379.5833
439.8  1360
439.6  1352.0833
439.4  1333.125
439.2  1273.125
439  1269.7917
438.8  1224.5833
438.6  1249.7917
438.4  1257.0833
438.2  1246.6667
438  1293.75
437.8  1283.75
437.6  1298.125
437.4  1346.25
437.2  1346.4583
437  1419.7917
436.8  1507.0833
436.6  1543.5417
436.4  1597.0833
436.2  1656.4583
436  1715.8333
435.8  1773.125
435.6  1805.4167
435.4  1773.75
435.2  1821.25
435  1768.3333
434.8  1696.4583
434.6  1617.0833
434.4  1572.9167
434.2  1546.25
434  1506.4583
433.8  1478.75
433.6  1470.8333
433.4  1458.9583
433.2  1387.2917
433  1332.5
432.8  1346.4583
432.6  1276.4583
432.4  1249.375
432.2  1169.1667
432  1156.25
431.8  1121.25
431.6  1124.7917
431.4  1086.4583
431.2  1124.5833
431  1091.6667
430.8  1092.7083
430.6  1060.625
430.4  1140.2083
430.2  1046.6667
430  1034.1667
429.8  1057.2917
429.6  1062.5
429.4  1063.3333
429.2  1073.9583
429  1027.7083
428.8  1063.9583
428.6  1048.3333
428.4  1039.5833
428.2  1019.5833
428  1079.7917
427.8  1076.875
427.6  1036.875
427.4  1021.6667
427.2  1043.5417
427  1046.875
426.8  1039.1667
426.6  1025.625
426.4  1063.75
426.2  1034.1667
426  1011.6667
425.8  1035.8333
425.6  1082.9167
425.4  1033.75
425.2  1055.2083
425  1065
424.8  1027.0833
424.6  1030.8333
424.4  1048.9583
424.2  1039.375
424  1053.5417
423.8  1045.625
423.6  1030.625
423.4  1038.9583
423.2  1054.5833
423  1026.4583
422.8  1030
422.6  1022.9167
422.4  1046.25
422.2  1039.375
422  1023.5417
421.8  1015.8333
421.6  1025.625
421.4  1013.75
421.2  1019.375
421  996.875
420.8  973.75
420.6  1034.1667
420.4  1015.2083
420.2  1020.8333
420  994.58333
419.8  996.04167
419.6  1005.2083
419.4  1013.75
419.2  1010.8333
419  988.95833
418.8  999.375
418.6  992.29167
418.4  1014.1667
418.2  1005.4167
418  1006.4583
417.8  998.33333
417.6  1007.7083
417.4  984.375
417.2  979.16667
417  962.91667
416.8  997.5
416.6  980.20833
416.4  997.5
416.2  976.66667
416  992.5
415.8  995
415.6  1011.25
415.4  960.41667
415.2  1012.7083
415  992.5
414.8  996.875
414.6  980.20833
414.4  987.29167
414.2  981.66667
414  971.875
413.8  983.54167
413.6  982.91667
413.4  1001.875
413.2  982.91667
413  996.04167
412.8  966.66667
412.6  985.83333
412.4  975.625
412.2  980.41667
412  995
411.8  981.875
411.6  1002.7083
411.4  966.875
411.2  991.66667
411  980.20833
410.8  985.41667
410.6  1001.6667
410.4  972.08333
410.2  976.875
410  984.375
409.8  1010
409.6  976.45833
409.4  991.04167
409.2  988.54167
409  961.45833
408.8  974.16667
408.6  987.70833
408.4  1000.625
408.2  981.25
408  998.95833
407.8  971.45833
407.6  975
407.4  964.58333
407.2  1002.5
407  976.04167
406.8  988.125
406.6  989.375
406.4  989.58333
406.2  984.58333
406  1004.375
405.8  965.20833
405.6  1009.5833
405.4  985.625
405.2  961.45833
405  966.25
404.8  973.95833
404.6  995.41667
404.4  1000
404.2  1037.0833
404  984.58333
403.8  1012.5
403.6  1003.125
403.4  995
403.2  957.5
403  993.75
402.8  1001.4583
402.6  1027.7083
402.4  1005.2083
402.2  995.41667
402  1032.9167
401.8  1022.0833
401.6  1050.2083
401.4  1042.0833
401.2  1037.5
401  1077.5
400.8  1041.4583
400.6  1072.7083
400.4  1072.2917
400.2  1069.1667
400  1039.5833
399.8  1023.75
399.6  1043.5417
399.4  1030.625
399.2  1012.9167
399  1005.8333
398.8  973.125
398.6  989.58333
398.4  993.33333
398.2  992.91667
398  1030.8333
397.8  959.79167
397.6  981.875
397.4  972.70833
397.2  967.08333
397  969.375
396.8  967.91667
396.6  962.29167
396.4  958.33333
396.2  983.33333
396  992.91667
395.8  958.125
395.6  991.04167
395.4  951.45833
395.2  965.41667
395  946.45833
394.8  983.54167
394.6  962.29167
394.4  962.5
394.2  979.79167
394  950.625
393.8  947.29167
393.6  948.54167
393.4  947.08333
393.2  983.33333
393  932.29167
392.8  951.25
392.6  938.95833
392.4  959.58333
392.2  943.125
392  960.41667
391.8  956.66667
391.6  956.25
391.4  965.625
391.2  951.875
391  976.45833
390.8  980.41667
390.6  939.375
390.4  957.08333
390.2  963.125
390  951.875
389.8  943.54167
389.6  950.625
389.4  976.04167
389.2  973.75
389  1078.125
388.8  974.79167
388.6  943.125
388.4  980
388.2  954.375
388  975.83333
387.8  970.625
387.6  962.29167
387.4  937.29167
387.2  979.375
387  950.41667
386.8  977.70833
386.6  982.29167
386.4  927.29167
386.2  981.04167
386  956.25
385.8  941.04167
385.6  986.66667
385.4  951.25
385.2  969.79167
385  968.75
384.8  1006.875
384.6  975.83333
384.4  982.08333
384.2  993.33333
384  980.20833
383.8  981.45833
383.6  973.54167
383.4  973.125
383.2  994.79167
383  981.66667
382.8  1004.7917
382.6  1007.7083
382.4  985
382.2  1017.5
382  968.54167
381.8  990.20833
381.6  980.20833
381.4  980.20833
381.2  1004.375
381  1006.4583
380.8  1004.1667
380.6  996.25
380.4  1006.25
380.2  980.20833
380  982.70833
379.8  999.79167
379.6  966.875
379.4  952.29167
379.2  961.875
379  949.375
378.8  963.54167
378.6  1002.2917
378.4  947.91667
378.2  994.58333
378  957.08333
377.8  975.20833
377.6  1006.875
377.4  980.83333
377.2  990.20833
377  996.66667
376.8  972.70833
376.6  996.66667
376.4  1019.7917
376.2  1008.3333
376  992.29167
375.8  1024.5833
375.6  1003.3333
375.4  1002.0833
375.2  1016.875
375  988.95833
374.8  1009.375
374.6  979.79167
374.4  997.08333
374.2  977.08333
374  1003.5417
373.8  985.625
373.6  973.54167
373.4  971.04167
373.2  985.20833
373  937.29167
372.8  935.20833
372.6  944.79167
372.4  903.95833
372.2  916.45833
372  924.79167
371.8  914.375
371.6  925.20833
371.4  925.83333
371.2  895.83333
371  945.41667
370.8  891.875
370.6  915.20833
370.4  871.45833
370.2  886.45833
370  892.08333
369.8  890
369.6  910.20833
369.4  883.95833
369.2  890.41667
369  907.29167
368.8  901.25
368.6  902.70833
368.4  880.41667
368.2  892.29167
368  901.04167
367.8  890.625
367.6  880
367.4  878.125
367.2  896.25
367  898.95833
366.8  907.08333
366.6  915.83333
366.4  896.45833
366.2  873.75
366  903.75
365.8  886.45833
365.6  882.70833
365.4  909.79167
365.2  889.79167
365  894.375
364.8  883.95833
364.6  907.29167
364.4  883.95833
364.2  896.875
364  877.91667
363.8  896.875
363.6  898.125
363.4  890.83333
363.2  907.29167
363  881.04167
362.8  946.25
362.6  890.83333
362.4  894.375
362.2  896.25
362  912.91667
361.8  899.16667
361.6  919.375
361.4  911.25
361.2  868.75
361  896.66667
360.8  879.58333
360.6  922.08333
360.4  924.58333
360.2  912.29167
360  899.58333
359.8  889.79167
359.6  902.5
359.4  918.54167
359.2  881.875
359  897.70833
358.8  880.83333
358.6  900.625
358.4  914.58333
358.2  894.58333
358  874.79167
357.8  911.04167
357.6  904.16667
357.4  908.125
357.2  904.79167
357  889.58333
356.8  917.08333
356.6  867.70833
356.4  924.58333
356.2  905.83333
356  896.45833
355.8  915.20833
355.6  920.41667
355.4  928.95833
355.2  893.95833
355  926.66667
354.8  894.16667
354.6  898.33333
354.4  892.91667
354.2  906.45833
354  913.54167
353.8  908.75
353.6  895
353.4  910
353.2  892.08333
353  927.08333
352.8  894.79167
352.6  893.33333
352.4  906.04167
352.2  882.70833
352  919.16667
351.8  900.41667
351.6  891.66667
351.4  916.45833
351.2  905.83333
351  919.79167
350.8  922.5
350.6  906.25
350.4  880.625
350.2  920.41667
350  918.54167
349.8  893.125
349.6  901.25
349.4  921.66667
349.2  903.75
349  896.04167
348.8  912.08333
348.6  908.125
348.4  907.70833
348.2  915.20833
348  913.75
347.8  880.20833
347.6  927.08333
347.4  888.95833
347.2  911.25
347  889.79167
346.8  938.75
346.6  921.875
346.4  886.45833
346.2  896.25
346  885
345.8  888.54167
345.6  885.625
345.4  914.79167
345.2  907.70833
345  875
344.8  898.75
344.6  896.66667
344.4  893.95833
344.2  927.5
344  904.58333
343.8  889.375
343.6  895.83333
343.4  917.5
343.2  889.375
343  899.58333
342.8  885.20833
342.6  911.45833
342.4  916.66667
342.2  925
342  897.70833
341.8  908.54167
341.6  922.5
341.4  913.95833
341.2  889.375
341  903.33333
340.8  917.29167
340.6  897.70833
340.4  885
340.2  914.375
340  923.75
339.8  929.375
339.6  937.91667
339.4  928.33333
339.2  903.125
339  897.70833
338.8  901.45833
338.6  900.41667
338.4  906.875
338.2  889.375
338  912.08333
337.8  892.08333
337.6  907.91667
337.4  919.375
337.2  901.45833
337  919.16667
336.8  908.125
336.6  908.54167
336.4  892.08333
336.2  903.54167
336  951.66667
335.8  938.33333
335.6  918.95833
335.4  901.25
335.2  900
335  908.125
334.8  915.625
334.6  900
334.4  890.20833
334.2  909.16667
334  916.875
333.8  906.04167
333.6  891.875
333.4  888.125
333.2  912.5
333  932.5
332.8  898.54167
332.6  899.16667
332.4  906.45833
332.2  922.5
332  918.95833
331.8  912.08333
331.6  903.75
331.4  890.625
331.2  932.70833
331  894.375
330.8  898.75
330.6  902.70833
330.4  912.91667
330.2  895
330  921.66667
329.8  918.33333
329.6  923.95833
329.4  907.08333
329.2  916.25
329  909.16667
328.8  868.33333
328.6  904.79167
328.4  900.83333
328.2  925
328  932.08333
327.8  892.70833
327.6  913.95833
327.4  891.04167
327.2  896.45833
327  926.25
326.8  886.25
326.6  914.16667
326.4  908.125
326.2  908.125
326  930.625
325.8  918.95833
325.6  937.29167
325.4  924.16667
325.2  911.875
325  893.33333
324.8  924.16667
324.6  901.875
324.4  918.33333
324.2  900.20833
324  914.16667
323.8  895
323.6  930.83333
323.4  903.54167
323.2  909.79167
323  911.04167
322.8  908.75
322.6  930.20833
322.4  906.04167
322.2  902.91667
322  934.58333
321.8  914.16667
321.6  909.375
321.4  918.125
321.2  961.66667
321  911.875
320.8  921.04167
320.6  925.20833
320.4  912.29167
320.2  929.79167
320  900.20833
319.8  932.29167
319.6  904.58333
319.4  927.08333
319.2  922.08333
319  928.54167
318.8  938.75
318.6  940.83333
318.4  933.95833
318.2  917.70833
318  961.04167
317.8  928.54167
317.6  925.625
317.4  923.95833
317.2  910.41667
317  936.45833
316.8  931.25
316.6  929.79167
316.4  1022.2917
316.2  939.16667
316  937.91667
315.8  931.875
315.6  922.91667
315.4  951.04167
315.2  903.125
315  935
314.8  947.29167
314.6  919.58333
314.4  936.45833
314.2  913.54167
314  921.875
313.8  926.45833
313.6  947.08333
313.4  926.45833
313.2  928.75
313  913.95833
312.8  909.58333
312.6  914.58333
312.4  922.08333
312.2  914.16667
312  927.91667
311.8  939.16667
311.6  910.625
311.4  916.45833
311.2  946.25
311  944.58333
310.8  915
310.6  905.20833
310.4  906.66667
310.2  931.25
310  951.66667
309.8  952.29167
309.6  937.5
309.4  918.33333
309.2  912.29167
309  941.66667
308.8  931.875
308.6  916.875
308.4  947.91667
308.2  920
308  940.83333
307.8  938.75
307.6  952.91667
307.4  939.16667
307.2  940.625
307  935.20833
306.8  925.83333
306.6  937.29167
306.4  920.20833
306.2  939.58333
306  926.04167
305.8  903.75
305.6  913.54167
305.4  914.16667
305.2  956.45833
305  915.625
304.8  940.625
304.6  905.625
304.4  907.91667
304.2  909.58333
304  922.70833
303.8  940
303.6  936.875
303.4  922.29167
303.2  915.83333
303  908.54167
302.8  910
302.6  922.08333
302.4  924.58333
302.2  920.20833
302  917.70833
301.8  913.33333
301.6  933.125
301.4  925.625
301.2  920
301  906.04167
300.8  917.5
300.6  924.79167
300.4  929.79167
300.2  910
300  925.625
299.8  923.125
299.6  909.58333
299.4  911.66667
299.2  920
299  920.20833
298.8  915.625
298.6  945
298.4  894.16667
298.2  916.875
298  883.95833
297.8  921.45833
297.6  907.08333
297.4  923.54167
297.2  927.08333
297  940.625
296.8  922.08333
296.6  917.08333
296.4  911.04167
296.2  913.75
296  919.16667
295.8  913.95833
295.6  939.58333
295.4  922.5
295.2  938.95833
295  933.33333
294.8  923.95833
294.6  931.25
294.4  923.95833
294.2  930.20833
294  936.04167
293.8  937.5
293.6  929.79167
293.4  933.125
293.2  932.70833
293  945.20833
292.8  1042.0833
292.6  928.125
292.4  921.66667
292.2  919.58333
292  934.375
291.8  923.33333
291.6  920.20833
291.4  938.54167
291.2  890.625
291  935.83333
290.8  899.58333
290.6  944.58333
290.4  944.58333
290.2  957.91667
290  956.66667
289.8  960.20833
289.6  985.41667
289.4  985
289.2  979.375
289  1007.2917
288.8  989.79167
288.6  1029.5833
288.4  1049.5833
288.2  1066.4583
288  1090
287.8  1103.75
287.6  1168.5417
287.4  1201.25
287.2  1265.2083
287  1254.375
286.8  1298.3333
286.6  1343.75
286.4  1409.1667
286.2  1407.2917
286  1436.875
285.8  1468.5417
285.6  1463.9583
285.4  1448.3333
285.2  1314.5833
285  1241.6667
284.8  1145
284.6  1103.125
284.4  1033.9583
284.2  983.75
284  960.41667
283.8  948.125
283.6  925.20833
283.4  909.79167
283.2  929.375
283  897.29167
282.8  891.25
282.6  930
282.4  880.20833
282.2  929.16667
282  891.25
281.8  883.54167
281.6  884.79167
281.4  899.16667
281.2  884.375
281  890.20833
280.8  892.70833
280.6  868.75
280.4  888.33333
280.2  879.16667
280  890.41667
279.8  882.70833
279.6  875.20833
279.4  868.75
279.2  888.95833
279  900.625
278.8  885.41667
278.6  904.375
278.4  905.20833
278.2  895.625
278  891.25
277.8  915.83333
277.6  908.33333
277.4  924.58333
277.2  909.375
277  901.45833
276.8  931.04167
276.6  902.91667
276.4  928.125
276.2  926.875
276  915.41667
275.8  933.54167
275.6  912.29167
275.4  897.08333
275.2  907.08333
275  905
274.8  891.04167
274.6  904.375
274.4  923.75
274.2  906.45833
274  917.08333
273.8  876.04167
273.6  880
273.4  887.29167
273.2  886.25
273  881.45833
272.8  919.375
272.6  890.41667
272.4  866.04167
272.2  899.16667
272  878.75
271.8  865.20833
271.6  855.625
271.4  880.625
271.2  859.58333
271  897.70833
270.8  873.54167
270.6  858.33333
270.4  890
270.2  890.625
270  876.45833
269.8  877.91667
269.6  890.20833
269.4  881.875
269.2  864.79167
269  870.625
268.8  873.95833
268.6  876.66667
268.4  860.83333
268.2  881.45833
268  867.70833
267.8  874.58333
267.6  858.95833
267.4  892.08333
267.2  887.5
267  871.45833
266.8  868.33333
266.6  891.66667
266.4  896.45833
266.2  881.25
266  887.29167
265.8  887.91667
265.6  870.41667
265.4  877.5
265.2  867.29167
265  891.04167
264.8  887.5
264.6  856.04167
264.4  855.41667
264.2  866.45833
264  856.25
263.8  872.91667
263.6  873.125
263.4  879.375
263.2  880.41667
263  880
262.8  875.83333
262.6  869.58333
262.4  903.54167
262.2  884.375
262  878.75
261.8  903.95833
261.6  878.54167
261.4  869.16667
261.2  907.91667
261  880.625
260.8  869.79167
260.6  854.16667
260.4  859.375
260.2  887.70833
260  872.29167
259.8  888.33333
259.6  877.70833
259.4  886.875
259.2  853.125
259  883.125
258.8  888.95833
258.6  953.75
258.4  873.33333
258.2  887.08333
258  865.20833
257.8  885
257.6  886.25
257.4  887.91667
257.2  886.04167
257  873.33333
256.8  864.375
256.6  900
256.4  888.75
256.2  852.29167
256  881.66667
255.8  874.58333
255.6  895.83333
255.4  893.33333
255.2  888.75
255  875
254.8  879.79167
254.6  891.04167
254.4  875.20833
254.2  851.04167
254  856.66667
253.8  895.20833
253.6  867.91667
253.4  872.29167
253.2  882.91667
253  896.04167
252.8  878.33333
252.6  882.29167
252.4  903.95833
252.2  896.04167
252  868.95833
251.8  879.16667
251.6  874.16667
251.4  880.41667
251.2  891.66667
251  861.45833
250.8  865.83333
250.6  886.875
250.4  892.08333
250.2  886.875
250  856.66667
249.8  871.875
249.6  890.41667
249.4  859.79167
249.2  882.29167
249  855.625
248.8  903.75
248.6  861.875
248.4  869.79167
248.2  881.66667
248  871.875
247.8  863.54167
247.6  884.16667
247.4  870.625
247.2  882.29167
247  871.04167
246.8  880.20833
246.6  866.04167
246.4  896.04167
246.2  875.625
246  857.29167
245.8  890.625
245.6  876.45833
245.4  873.75
245.2  877.91667
245  880.20833
244.8  886.66667
244.6  867.08333
244.4  876.66667
244.2  904.375
244  875.625
243.8  875.625
243.6  891.45833
243.4  866.66667
243.2  862.91667
243  916.04167
242.8  908.95833
242.6  883.95833
242.4  885.41667
242.2  867.70833
242  878.125
241.8  875.41667
241.6  893.75
241.4  901.66667
241.2  900
241  884.79167
240.8  829.79167
240.6  863.54167
240.4  897.08333
240.2  873.75
240  871.04167
239.8  879.375
239.6  910.41667
239.4  866.875
239.2  869.58333
239  888.95833
238.8  907.29167
238.6  887.29167
238.4  887.29167
238.2  871.25
238  863.75
237.8  882.91667
237.6  876.45833
237.4  855.83333
237.2  884.79167
237  846.04167
236.8  886.66667
236.6  905
236.4  884.375
236.2  880
236  896.04167
235.8  875.20833
235.6  881.25
235.4  861.45833
235.2  891.25
235  901.875
234.8  885.20833
234.6  890.41667
234.4  888.75
234.2  877.08333
234  876.66667
233.8  896.25
233.6  887.08333
233.4  890.625
233.2  880.83333
233  890.41667
232.8  880.625
232.6  887.91667
232.4  883.75
232.2  913.75
232  872.29167
231.8  888.54167
231.6  903.75
231.4  891.45833
231.2  876.25
231  894.16667
230.8  893.33333
230.6  881.45833
230.4  862.08333
230.2  873.75
230  885
229.8  877.5
229.6  886.45833
229.4  893.33333
229.2  904.79167
229  870.625
228.8  886.04167
228.6  891.45833
228.4  889.79167
228.2  857.29167
228  907.08333
227.8  905.41667
227.6  860
227.4  886.25
227.2  866.45833
227  872.70833
226.8  894.375
226.6  857.5
226.4  914.16667
226.2  890.83333
226  851.04167
225.8  876.45833
225.6  865.83333
225.4  881.04167
225.2  880.625
225  880.20833
224.8  916.45833
224.6  879.375
224.4  871.875
224.2  843.54167
224  881.04167
223.8  845.625
223.6  840.625
223.4  879.58333
223.2  874.79167
223  883.54167
222.8  867.29167
222.6  887.91667
222.4  858.95833
222.2  863.125
222  892.91667
221.8  868.54167
221.6  866.66667
221.4  865
221.2  873.33333
221  874.16667
220.8  874.375
220.6  865.41667
220.4  877.91667
220.2  883.95833
220  865.625
219.8  863.75
219.6  868.75
219.4  869.16667
219.2  852.5
219  877.70833
218.8  877.08333
218.6  864.375
218.4  861.875
218.2  881.45833
218  857.5
217.8  882.91667
217.6  850
217.4  886.25
217.2  881.04167
217  875.625
216.8  845.83333
216.6  867.91667
216.4  889.16667
216.2  872.5
216  881.45833
215.8  883.75
215.6  860.20833
215.4  852.29167
215.2  870.625
215  878.95833
214.8  870.41667
214.6  878.75
214.4  871.25
214.2  893.95833
214  874.16667
213.8  865
213.6  865
213.4  859.16667
213.2  873.75
213  844.58333
212.8  879.58333
212.6  866.04167
212.4  867.29167
212.2  864.375
212  861.45833
211.8  863.75
211.6  890.83333
211.4  865
211.2  903.54167
211  865
210.8  862.08333
210.6  855.83333
210.4  860
210.2  871.66667
210  850.625
209.8  860.41667
209.6  852.29167
209.4  877.29167
209.2  871.45833
209  882.29167
208.8  878.125
208.6  858.75
208.4  852.29167
208.2  867.5
208  859.79167
207.8  871.66667
207.6  880.41667
207.4  861.04167
207.2  859.58333
207  880
206.8  863.75
206.6  875.20833
206.4  876.25
206.2  875.625
206  868.95833
205.8  870.41667
205.6  854.375
205.4  861.875
205.2  848.125
205  861.45833
204.8  858.125
204.6  867.5
204.4  882.5
204.2  877.91667
204  840.625
203.8  840.83333
203.6  869.375
203.4  850.83333
203.2  855
203  835.625
202.8  867.29167
202.6  876.04167
202.4  857.91667
202.2  846.66667
202  873.54167
201.8  867.91667
201.6  874.16667
201.4  870.625
201.2  886.45833
201  874.58333
200.8  870
200.6  879.16667
200.4  886.66667
200.2  882.91667
200  863.75
199.8  880.41667
199.6  877.08333
199.4  874.79167
199.2  828.75
199  856.45833
198.8  875.41667
198.6  881.04167
198.4  878.33333
198.2  853.125
198  885
197.8  885.625
197.6  875.83333
197.4  866.04167
197.2  886.875
197  887.29167
196.8  855.83333
196.6  876.04167
196.4  875.41667
196.2  863.75
196  890.20833
195.8  854.16667
195.6  872.08333
195.4  852.91667
195.2  863.125
195  879.16667
194.8  865.20833
194.6  881.66667
194.4  867.70833
194.2  851.25
194  855.20833
193.8  882.91667
193.6  872.70833
193.4  860.83333
193.2  876.875
193  879.16667
192.8  854.375
192.6  882.29167
192.4  896.875
192.2  863.125
192  865.625
191.8  897.08333
191.6  870.625
191.4  884.79167
191.2  872.70833
191  872.70833
190.8  863.75
190.6  859.79167
190.4  906.04167
190.2  866.25
190  865
189.8  875.41667
189.6  859.16667
189.4  897.5
189.2  866.66667
189  861.25
188.8  862.29167
188.6  870
188.4  851.875
188.2  863.95833
188  862.70833
187.8  905.625
187.6  870.41667
187.4  865.20833
187.2  864.58333
187  870.625
186.8  876.875
186.6  865
186.4  872.91667
186.2  856.875
186  865.625
185.8  882.08333
185.6  874.16667
185.4  873.33333
185.2  882.70833
185  852.5
184.8  849.79167
184.6  868.125
184.4  830.625
184.2  871.66667
184  845.41667
183.8  867.70833
183.6  879.375
183.4  877.5
183.2  870.625
183  867.70833
182.8  879.16667
182.6  890.83333
182.4  852.29167
182.2  874.58333
182  847.08333
181.8  889.375
181.6  867.29167
181.4  887.70833
181.2  892.08333
181  848.33333
180.8  842.70833
180.6  879.16667
180.4  871.66667
180.2  865.41667
180  878.75
179.8  867.70833
179.6  877.08333
179.4  866.45833
179.2  880.20833
179  863.95833
178.8  881.66667
178.6  863.95833
178.4  895
178.2  896.25
178  883.75
177.8  865.625
177.6  883.33333
177.4  881.45833
177.2  849.58333
177  873.95833
176.8  858.54167
176.6  881.04167
176.4  855.20833
176.2  875.41667
176  888.33333
175.8  875
175.6  876.45833
175.4  863.95833
175.2  878.125
175  887.91667
174.8  857.91667
174.6  874.58333
174.4  874.79167
174.2  885
174  904.58333
173.8  876.04167
173.6  846.25
173.4  890.83333
173.2  866.45833
173  892.08333
172.8  881.66667
172.6  872.70833
172.4  875.20833
172.2  872.5
172  885.20833
171.8  879.79167
171.6  881.25
171.4  901.875
171.2  878.125
171  876.04167
170.8  876.25
170.6  868.54167
170.4  875.41667
170.2  901.25
170  885.20833
169.8  892.70833
169.6  908.125
169.4  883.95833
169.2  885.41667
169  858.125
168.8  882.5
168.6  865.41667
168.4  900.83333
168.2  877.5
168  886.45833
167.8  875
167.6  860.83333
167.4  892.91667
167.2  876.25
167  866.66667
166.8  869.79167
166.6  871.25
166.4  892.70833
166.2  886.875
166  890.41667
165.8  881.875
165.6  884.375
165.4  881.04167
165.2  883.125
165  877.91667
164.8  867.29167
164.6  912.5
164.4  870.20833
164.2  887.70833
164  894.58333
163.8  893.75
163.6  873.75
163.4  863.33333
163.2  877.29167
163  886.66667
162.8  868.33333
162.6  917.5
162.4  893.95833
162.2  912.5
162  867.70833
161.8  895.41667
161.6  901.45833
161.4  878.33333
161.2  872.5
161  850.41667
160.8  856.875
160.6  880
160.4  872.29167
160.2  872.5
160  875.625
159.8  881.66667
159.6  890
159.4  876.25
159.2  856.875
159  919.79167
158.8  884.79167
158.6  897.70833
158.4  876.875
158.2  876.875
158  887.70833
157.8  868.95833
157.6  902.29167
157.4  869.375
157.2  877.08333
157  875.83333
156.8  872.70833
156.6  911.45833
156.4  874.79167
156.2  892.70833
156  942.70833
155.8  912.29167
155.6  892.91667
155.4  915
155.2  934.375
155  869.375
154.8  917.08333
154.6  905.625
154.4  895.41667
154.2  898.33333
154  890.20833
153.8  900.20833
153.6  905.41667
153.4  887.29167
153.2  897.29167
153  882.70833
152.8  918.125
152.6  872.70833
152.4  868.54167
152.2  911.66667
152  879.375
151.8  880
151.6  856.04167
151.4  875.83333
151.2  919.16667
151  880.20833
150.8  887.91667
150.6  879.375
150.4  880.20833
150.2  885.20833
150  882.70833
149.8  884.58333
149.6  886.04167
149.4  861.25
149.2  874.16667
149  879.58333
148.8  883.95833
148.6  864.375
148.4  889.58333
148.2  874.58333
148  895.625
147.8  874.58333
147.6  877.5
147.4  872.70833
147.2  870
147  888.95833
146.8  896.04167
146.6  874.58333
146.4  897.91667
146.2  882.70833
146  889.58333
145.8  871.875
145.6  889.79167
145.4  894.16667
145.2  882.91667
145  875.83333
144.8  911.45833
144.6  910.83333
144.4  866.25
144.2  902.70833
144  883.125
143.8  930.41667
143.6  875.83333
143.4  888.125
143.2  907.29167
143  865.20833
142.8  898.75
142.6  900.20833
142.4  901.66667
142.2  919.16667
142  888.95833
141.8  892.29167
141.6  883.95833
141.4  883.33333
141.2  885.41667
141  905.625
140.8  897.70833
140.6  912.08333
140.4  899.375
140.2  925.41667
140  888.54167
139.8  905
139.6  894.16667
139.4  897.08333
139.2  895
139  908.75
138.8  903.75
138.6  901.875
138.4  879.375
138.2  903.125
138  886.875
137.8  884.375
137.6  864.79167
137.4  869.16667
137.2  895
137  926.25
136.8  897.29167
136.6  905.20833
136.4  890.83333
136.2  895.625
136  877.70833
135.8  914.375
135.6  893.54167
135.4  895
135.2  868.75
135  886.45833
134.8  874.375
134.6  852.91667
134.4  867.29167
134.2  881.66667
134  892.91667
133.8  870
133.6  887.91667
133.4  900.625
133.2  886.25
133  849.375
132.8  876.04167
132.6  875.83333
132.4  877.91667
132.2  879.16667
132  869.375
131.8  888.33333
131.6  898.125
131.4  903.75
131.2  879.58333
131  866.875
130.8  858.75
130.6  899.79167
130.4  901.25
130.2  885
130  898.54167
129.8  882.70833
129.6  871.875
129.4  888.125
129.2  872.70833
129  876.45833
128.8  918.33333
128.6  903.54167
128.4  903.125
128.2  914.375
128  895
127.8  908.125
127.6  899.16667
127.4  928.33333
127.2  941.66667
127  914.16667
126.8  934.79167
126.6  970.20833
126.4  949.375
126.2  963.95833
126  970.41667
125.8  976.25
125.6  985
125.4  991.66667
125.2  976.04167
125  992.5
124.8  994.375
124.6  982.70833
124.4  996.45833
124.2  998.33333
124  975.20833
123.8  1006.875
123.6  970
123.4  980.41667
123.2  1004.1667
123  972.08333
122.8  973.33333
122.6  938.125
122.4  919.375
122.2  934.16667
122  950.83333
121.8  923.33333
121.6  912.70833
121.4  921.25
121.2  902.91667
121  893.75
120.8  883.75
120.6  887.70833
120.4  893.54167
120.2  886.45833
120  856.66667
119.8  887.70833
119.6  885.625
119.4  886.66667
119.2  888.125
119  850.625
118.8  870.625
118.6  889.79167
118.4  898.125
118.2  863.75
118  852.08333
117.8  868.54167
117.6  872.29167
117.4  858.125
117.2  880.20833
117  865.41667
116.8  866.25
116.6  863.75
116.4  869.16667
116.2  858.95833
116  881.25
115.8  867.70833
115.6  862.29167
115.4  865.20833
115.2  867.08333
115  854.58333
114.8  883.33333
114.6  883.95833
114.4  861.04167
114.2  875.20833
114  875.83333
113.8  870.83333
113.6  881.875
113.4  867.29167
113.2  865.20833
113  862.29167
112.8  892.70833
112.6  861.45833
112.4  852.70833
112.2  875.41667
112  883.75
111.8  874.16667
111.6  857.5
111.4  870.41667
111.2  876.66667
111  887.29167
110.8  851.04167
110.6  853.54167
110.4  861.875
110.2  924.79167
110  840.41667
109.8  870
109.6  860.83333
109.4  862.08333
109.2  862.08333
109  885.83333
108.8  936.45833
108.6  849.16667
108.4  870.20833
108.2  875.20833
108  874.16667
107.8  872.91667
107.6  876.875
107.4  878.54167
107.2  856.66667
107  853.75
106.8  858.95833
106.6  873.54167
106.4  881.875
106.2  870.83333
106  884.16667
105.8  874.79167
105.6  881.25
105.4  868.75
105.2  862.70833
105  867.70833
104.8  863.54167
104.6  871.04167
104.4  904.79167
104.2  896.875
104  877.08333
103.8  882.91667
103.6  899.58333
103.4  903.75
103.2  898.54167
103  896.45833
102.8  896.04167
102.6  885
102.4  898.33333
102.2  900.41667
102  875.41667
101.8  876.04167
101.6  886.25
101.4  897.5
101.2  873.95833
101  882.91667
100.8  886.25
100.6  891.875
100.4  887.5
100.2  888.33333
100  868.125
99.8  905.625
99.6  873.75
99.4  885.41667
99.2  853.75
99  857.08333
98.8  889.375
98.6  896.25
98.4  886.66667
98.2  888.95833
98  899.375
97.8  910.20833
97.6  883.33333
97.4  885
97.2  869.16667
97  888.75
96.8  898.75
96.6  896.875
96.4  888.95833
96.2  908.33333
96  865.20833
95.8  879.16667
95.6  861.66667
95.4  855.83333
95.2  885.83333
95  897.29167
94.8  884.16667
94.6  897.70833
94.4  908.125
94.2  897.91667
94  911.66667
93.8  867.5
93.6  914.375
93.4  902.29167
93.2  887.91667
93  888.125
92.8  925.20833
92.6  902.70833
92.4  911.25
92.2  875.625
92  912.70833
91.8  896.04167
91.6  873.75
91.4  912.91667
91.2  896.04167
91  914.58333
90.8  889.375
90.6  905.20833
90.4  899.79167
90.2  919.16667
90  913.75
89.8  907.5
89.6  938.125
89.4  917.08333
89.2  906.875
89  888.95833
88.8  901.25
88.6  904.79167
88.4  924.79167
88.2  928.75
88  913.54167
87.8  929.58333
87.6  920.625
87.4  923.125
87.2  939.16667
87  930.41667
86.8  941.875
86.6  945
86.4  923.33333
86.2  921.25
86  927.29167
85.8  944.58333
85.6  933.54167
85.4  937.5
85.2  951.25
85  937.91667
84.8  936.04167
84.6  958.54167
84.4  934.16667
84.2  966.66667
84  935.625
83.8  914.375
83.6  948.125
83.4  942.91667
83.2  944.79167
83  952.70833
82.8  918.33333
82.6  945.625
82.4  983.33333
82.2  953.95833
82  958.33333
81.8  956.25
81.6  954.58333
81.4  954.58333
81.2  950
81  977.5
80.8  985
80.6  959.58333
80.4  972.70833
80.2  958.54167
80  976.04167
79.8  967.29167
79.6  945.41667
79.4  960.41667
79.2  957.08333
79  921.66667
78.8  928.125
78.6  936.04167
78.4  937.5
78.2  917.91667
78  924.58333
77.8  910.83333
77.6  910.20833
77.4  905.83333
77.2  894.58333
77  877.70833
76.8  876.25
76.6  883.33333
76.4  880.625
76.2  877.08333
76  865.83333
75.8  851.875
75.6  852.70833
75.4  842.5
75.2  850
75  845.83333
74.8  820
74.6  823.54167
74.4  825.41667
74.2  835.41667
74  776.25
73.8  795
73.6  817.70833
73.4  799.16667
73.2  796.04167
73  796.04167
72.8  808.75
72.6  783.33333
72.4  776.875
72.2  782.91667
72  786.66667
71.8  766.04167
71.6  788.33333
71.4  758.125
71.2  766.25
71  758.33333
70.8  766.45833
70.6  757.29167
70.4  741.04167
70.2  746.875
70  731.45833
69.8  725.20833
69.6  745
69.4  735.625
69.2  723.95833
69  726.04167
68.8  717.08333
68.6  733.125
68.4  727.29167
68.2  695.625
68  692.91667
67.8  708.75
67.6  689.58333
67.4  702.91667
67.2  710.41667
67  696.66667
66.8  696.875
66.6  707.5
66.4  674.375
66.2  702.08333
66  696.875
65.8  715
65.6  673.125
65.4  689.58333
65.2  695.83333
65  704.16667
64.8  681.25
64.6  691.04167
64.4  703.95833
64.2  683.33333
64  686.66667
63.8  684.375
63.6  669.79167
63.4  662.29167
63.2  647.91667
63  669.16667
62.8  664.375
62.6  683.95833
62.4  658.75
62.2  650
62  671.04167
61.8  689.16667
61.6  649.79167
61.4  670.625
61.2  670.625
61  656.45833
60.8  636.875
60.6  688.95833
60.4  647.29167
60.2  665.83333
60  655
59.8  643.95833
59.6  665.20833
59.4  674.79167
59.2  637.70833
59  663.75
58.8  677.91667
58.6  652.70833
58.4  635.83333
58.2  651.875
58  661.45833
57.8  661.04167
57.6  629.58333
57.4  639.375
57.2  652.5
57  667.5
56.8  682.08333
56.6  660.625
56.4  673.95833
56.2  649.16667
56  666.04167
55.8  649.79167
55.6  664.58333
55.4  625.83333
55.2  658.125
55  648.54167
54.8  659.79167
54.6  650.41667
54.4  676.04167
54.2  636.45833
54  642.70833
53.8  661.25
53.6  662.29167
53.4  658.75
53.2  677.08333
53  654.375
52.8  650.83333
52.6  637.29167
52.4  640
52.2  637.70833
52  661.66667
51.8  657.5
51.6  651.66667
51.4  654.16667
51.2  656.66667
51  638.54167
50.8  661.04167
50.6  657.08333
50.4  659.79167
50.2  668.125
50  660.41667
49.8  670.41667
49.6  649.79167
49.4  673.95833
49.2  674.58333
49  643.54167
48.8  654.16667
48.6  645.625
48.4  636.875
48.2  645.20833
48  663.54167
47.8  662.08333
47.6  675.625
47.4  676.45833
47.2  674.375
47  660
46.8  676.875
46.6  663.75
46.4  657.29167
46.2  659.79167
46  672.5
45.8  655.20833
45.6  686.875
45.4  659.16667
45.2  685.83333
45  781.66667
44.8  693.95833
44.6  684.375
44.4  670.20833
44.2  670
44  670
43.8  698.33333
43.6  661.66667
43.4  691.875
43.2  651.66667
43  674.58333
42.8  682.5
42.6  686.66667
42.4  711.66667
42.2  689.58333
42  693.95833
41.8  660.20833
41.6  669.58333
41.4  666.04167
41.2  659.375
41  665.20833
40.8  663.54167
40.6  660.625
40.4  688.75
40.2  679.79167
40  700.83333
39.8  693.125
39.6  684.58333
39.4  685.625
39.2  667.5
39  699.16667
38.8  682.29167
38.6  685
38.4  672.29167
38.2  707.08333
38  678.95833
37.8  670.625
37.6  689.79167
37.4  697.5
37.2  662.91667
37  690.41667
36.8  686.875
36.6  671.875
36.4  653.125
36.2  672.08333
36  682.91667
35.8  661.25
35.6  665.20833
35.4  651.25
35.2  659.58333
35  656.04167
34.8  661.875
34.6  660.41667
34.4  654.16667
34.2  645
34  638.125
33.8  643.33333
33.6  629.79167
33.4  652.70833
33.2  617.70833
33  629.375
32.8  614.58333
32.6  640.20833
32.4  618.54167
32.2  632.91667
32  632.08333
31.8  647.08333
31.6  648.75
31.4  627.08333
31.2  639.16667
31  621.875
30.8  643.125
30.6  628.54167
30.4  628.33333
30.2  665
30  646.875
29.8  653.54167
29.6  656.875
29.4  663.75
29.2  664.79167
29  662.08333
28.8  711.66667
28.6  730.20833
28.4  718.75
28.2  726.66667
28  737.91667
27.8  744.79167
27.6  754.375
27.4  771.04167
27.2  766.45833
27  754.16667
26.8  765.41667
26.6  738.54167
26.4  733.125
26.2  709.375
26  691.66667
25.8  683.54167
25.6  658.125
25.4  631.875
25.2  635
25  618.75
24.8  622.91667
24.6  625.20833
24.4  627.29167
24.2  620.625
24  635.625
23.8  652.5
23.6  623.33333
23.4  637.91667
23.2  650
23  653.33333
22.8  674.16667
22.6  677.5
22.4  682.91667
22.2  700.625
22  728.54167
21.8  704.375
21.6  743.125
21.4  808.33333
21.2  836.25
21  918.95833
20.8  988.125
20.6  1083.5417
20.4  1200.625
20.2  1324.7917
20  1450.8333
19.8  1583.3333
19.6  1718.125
19.4  1842.0833
19.2  1914.7917
19  1956.875
18.8  2015.625
18.6  1955.4167
18.4  1846.25
18.2  1751.4583
18  1566.25
17.8  1379.5833
17.6  1231.0417
17.4  1049.5833
17.2  927.29167
17  827.91667
16.8  748.54167
16.6  650.625
16.4  601.66667
16.2  579.16667
16  540
15.8  538.33333
15.6  506.25
15.4  495
15.2  479.16667
15  488.95833
14.8  489.375
14.6  470.625
14.4  472.08333
14.2  490.20833
14  467.08333
13.8  467.29167
13.6  457.08333
13.4  448.33333
13.2  455.41667
13  458.95833
12.8  460.625
12.6  450.625
12.4  482.91667
12.2  480.83333
12  455.625
11.8  456.66667
11.6  455.20833
11.4  474.375
11.2  469.79167
11  489.16667
10.8  500.41667
10.6  506.25
10.4  527.5
10.2  540.41667
10  527.70833
9.8  550.83333
9.6  556.25
9.4  564.58333
9.2  583.54167
9  591.66667
8.8  579.375
8.6  581.875
8.4  579.79167
8.2  587.5
8  570.41667
7.8  581.04167
7.6  555.625
7.4  550.20833
7.2  533.33333
7  545.20833
6.8  528.75
6.6  542.29167
6.4  534.58333
6.2  523.54167
6  515
5.8  525
5.6  482.70833
5.4  500.20833
5.2  481.45833
5  472.70833
4.8  485.20833
4.6  462.29167
4.4  446.04167
4.2  455.20833
4  447.29167
3.8  437.70833
3.6  430.83333
3.4  395.41667
3.2  401.875
3  413.75
2.8  413.95833
2.6  391.875
2.4  408.95833
2.2  390
2  397.70833
1.8  396.66667
1.6  391.66667
1.4  394.58333
1.2  396.04167
1  388.33333
0.8  395.20833
0.6  412.91667
0.4  387.5
0.2  411.25
-2.2737368e-013  403.54167
-0.2  392.70833
-0.4  405.625
-0.6  406.45833
-0.8  413.95833
-1  412.08333
-1.2  395.83333
-1.4  405.625
-1.6  392.29167
-1.8  401.25
-2  407.08333
-2.2  399.58333
-2.4  397.29167
-2.6  400.20833
-2.8  392.29167
-3  397.5
-3.2  404.79167
-3.4  392.29167
-3.6  386.875
-3.8  400
-4  406.875

