# Created by:        SpecsLab Prodigy, Version 4.60.2-r85849 
#
# XY-Serializer Export Settings:
#   Comment Prefix:           #
#   Output meta data:         yes
#   Energy Axis:              Binding Energy
#   Count Rate:               Counts per Second
#   Separate Scan Data:       no
#   Separate Channel Data:    no
#   External Channel Data:    yes
#   Transmission Function:    no
#   ErrorBar:                 no
#   Operation Results:        yes
#   Time Zone Format:         UTC
#
# Group:             xps
#
# Region:            Ba 3d
# Acquisition Date:  09/01/22 09:17:12 UTC
# Analysis Method:   XPS
# Analyzer:          Phoibos 100 R6
# Analyzer Lens:     LargeArea:1.5kV
# Analyzer Slit:     5:7x20\B:open
# Scan Mode:         FixedAnalyzerTransmission
# Curves/Scan:       1
# Values/Curve:      131
# Dwell Time:        0.8
# Excitation Energy: 1486.61
# Binding Energy:    786
# Pass Energy:       30
# Bias Voltage:      90
# Detector Voltage:  2600
# Eff. Workfunction: 4.309
# Source:            X-Ray Dummy
# Comment:           
#
# Cycle: 0
# Number of Scans: 2
#
# Cycle: 0, Curve: 0
# Acquisition Date: 09/01/22 09:17:12 UTC
#
# ColumnLabels: energy counts/s
#
786  7393.75
785.9  7355
785.8  7412.5
785.7  7257.5
785.6  7381.25
785.5  7268.125
785.4  7418.125
785.3  7337.5
785.2  7518.125
785.1  7452.5
785  7442.5
784.9  7371.875
784.8  7412.5
784.7  7315.625
784.6  7400.625
784.5  7478.75
784.4  7375.625
784.3  7382.5
784.2  7315
784.1  7382.5
784  7393.75
783.9  7436.25
783.8  7530.625
783.7  7349.375
783.6  7549.375
783.5  7731.25
783.4  7498.125
783.3  7750
783.2  7690
783.1  7775.625
783  7811.875
782.9  7840.625
782.8  8022.5
782.7  8108.125
782.6  8190
782.5  8422.5
782.4  8548.125
782.3  8676.25
782.2  8854.375
782.1  9111.875
782  9501.875
781.9  9705.625
781.8  10023.125
781.7  10247.5
781.6  10273.125
781.5  10386.875
781.4  10690
781.3  10800
781.2  10806.25
781.1  11005.625
781  11215
780.9  11051.875
780.8  11083.75
780.7  10829.375
780.6  10655.625
780.5  10578.125
780.4  10158.75
780.3  9921.875
780.2  9734.375
780.1  9441.875
780  9174.375
779.9  8891.875
779.8  8764.375
779.7  8512.5
779.6  8285
779.5  8251.25
779.4  7870.625
779.3  7725.625
779.2  7641.25
779.1  7658.125
779  7530.625
778.9  7469.375
778.8  7421.875
778.7  7390
778.6  7273.75
778.5  7305
778.4  7256.25
778.3  7241.25
778.2  7288.125
778.1  7225
778  7269.375
777.9  7093.125
777.8  7122.5
777.7  7249.375
777.6  7328.125
777.5  7268.125
777.4  7023.125
777.3  7095.625
777.2  7143.125
777.1  7222.5
777  7093.75
776.9  7176.25
776.8  7123.125
776.7  6973.75
776.6  6978.75
776.5  7016.875
776.4  7078.75
776.3  7259.375
776.2  7182.5
776.1  7089.375
776  7090
775.9  7045
775.8  7065.625
775.7  7168.125
775.6  6971.25
775.5  7095
775.4  7162.5
775.3  7001.875
775.2  7185
775.1  6979.375
775  7140.625
774.9  7070
774.8  7102.5
774.7  7156.25
774.6  7001.875
774.5  7055
774.4  7111.25
774.3  7159.375
774.2  7053.125
774.1  7015
774  7019.375
773.9  7060.625
773.8  7046.25
773.7  7088.75
773.6  7171.875
773.5  7007.5
773.4  7207.5
773.3  7047.5
773.2  7032.5
773.1  7184.375
773  7184.375

# Region:            C 1s
# Acquisition Date:  09/01/22 09:39:22 UTC
# Analysis Method:   XPS
# Analyzer:          Phoibos 100 R6
# Analyzer Lens:     LargeArea:1.5kV
# Analyzer Slit:     5:7x20\B:open
# Scan Mode:         FixedAnalyzerTransmission
# Curves/Scan:       1
# Values/Curve:      151
# Dwell Time:        0.8
# Excitation Energy: 1486.61
# Binding Energy:    295
# Pass Energy:       30
# Bias Voltage:      90
# Detector Voltage:  2600
# Eff. Workfunction: 4.309
# Source:            X-Ray Dummy
# Comment:           
#
# Cycle: 0
# Number of Scans: 5
#
# Cycle: 0, Curve: 0
# Acquisition Date: 09/01/22 09:39:22 UTC
#
# ColumnLabels: energy counts/s
#
295  877.75
294.9  904.75
294.8  899
294.7  890.25
294.6  904.25
294.5  901.75
294.4  897.25
294.3  915.5
294.2  911.25
294.1  944.25
294  907.5
293.9  898.75
293.8  929.25
293.7  938.75
293.6  908.75
293.5  913.5
293.4  909.25
293.3  903.25
293.2  913
293.1  935.25
293  907.75
292.9  919
292.8  905
292.7  928.5
292.6  899
292.5  901.75
292.4  919.5
292.3  910.5
292.2  899.75
292.1  913
292  925.5
291.9  917.5
291.8  924.25
291.7  955
291.6  918
291.5  905
291.4  901.25
291.3  926.5
291.2  930.25
291.1  897.5
291  918.75
290.9  913.25
290.8  900.25
290.7  933
290.6  946
290.5  933.75
290.4  909
290.3  901.25
290.2  900.5
290.1  931.75
290  930
289.9  919
289.8  922.25
289.7  890.75
289.6  927.5
289.5  941.25
289.4  953.75
289.3  947.25
289.2  952.25
289.1  943.25
289  959
288.9  969.5
288.8  944
288.7  968.25
288.6  959.25
288.5  964.25
288.4  976.25
288.3  967.75
288.2  1013.25
288.1  968.25
288  992
287.9  987.5
287.8  1026.75
287.7  986.25
287.6  1007.5
287.5  1015.25
287.4  1029
287.3  1041.5
287.2  1058.25
287.1  1061
287  1085.75
286.9  1086.25
286.8  1079.5
286.7  1116.5
286.6  1095.5
286.5  1121.75
286.4  1131.5
286.3  1157.5
286.2  1164.25
286.1  1178.5
286  1165.5
285.9  1218
285.8  1214.75
285.7  1242.5
285.6  1233.5
285.5  1235.25
285.4  1289
285.3  1269.25
285.2  1242
285.1  1257.75
285  1239.75
284.9  1282
284.8  1291.75
284.7  1225.25
284.6  1185.5
284.5  1217
284.4  1157
284.3  1161.75
284.2  1113.5
284.1  1124
284  1091
283.9  1060
283.8  1039
283.7  1035.75
283.6  962.25
283.5  979
283.4  966.5
283.3  965.5
283.2  947.75
283.1  932.25
283  921.25
282.9  890.25
282.8  933.25
282.7  902
282.6  891
282.5  887.5
282.4  888.5
282.3  900.5
282.2  862.5
282.1  870.5
282  888
281.9  871
281.8  850
281.7  858.25
281.6  860
281.5  894.25
281.4  897.75
281.3  889
281.2  899.25
281.1  883
281  864.75
280.9  883
280.8  858.75
280.7  868.25
280.6  881.5
280.5  876.5
280.4  875
280.3  890
280.2  873.75
280.1  855.5
280  876

# Region:            O 1s
# Acquisition Date:  09/01/22 10:18:25 UTC
# Analysis Method:   XPS
# Analyzer:          Phoibos 100 R6
# Analyzer Lens:     LargeArea:1.5kV
# Analyzer Slit:     5:7x20\B:open
# Scan Mode:         FixedAnalyzerTransmission
# Curves/Scan:       1
# Values/Curve:      171
# Dwell Time:        0.8
# Excitation Energy: 1486.61
# Binding Energy:    542
# Pass Energy:       30
# Bias Voltage:      90
# Detector Voltage:  2600
# Eff. Workfunction: 4.309
# Source:            X-Ray Dummy
# Comment:           
#
# Cycle: 0
# Number of Scans: 15
#
# Cycle: 0, Curve: 0
# Acquisition Date: 09/01/22 10:18:25 UTC
#
# ColumnLabels: energy counts/s
#
542  1124.3333
541.9  1127.25
541.8  1143.3333
541.7  1119.5833
541.6  1105.9167
541.5  1120.5
541.4  1102.3333
541.3  1106.25
541.2  1117.0833
541.1  1135.9167
541  1113.6667
540.9  1095.5833
540.8  1110.5
540.7  1100.0833
540.6  1098.1667
540.5  1111
540.4  1091.5
540.3  1091.75
540.2  1115.1667
540.1  1101.9167
540  1094.25
539.9  1087.1667
539.8  1090
539.7  1084.0833
539.6  1080.1667
539.5  1075.3333
539.4  1065
539.3  1081.5
539.2  1076.9167
539.1  1092.75
539  1066.1667
538.9  1062.4167
538.8  1074.5833
538.7  1063.1667
538.6  1050.8333
538.5  1059.0833
538.4  1044.3333
538.3  1046.75
538.2  1047.1667
538.1  1056.5
538  1047.1667
537.9  1045.3333
537.8  1048.4167
537.7  1035.9167
537.6  1037.75
537.5  1060.3333
537.4  1028.4167
537.3  1025.75
537.2  1037.25
537.1  1049.0833
537  1026.4167
536.9  1042.9167
536.8  1041.3333
536.7  1022.3333
536.6  1039
536.5  1037.75
536.4  1029.4167
536.3  1026.9167
536.2  1039
536.1  1030.3333
536  1016.1667
535.9  1031.5
535.8  1017.9167
535.7  1025.5833
535.6  1034.9167
535.5  1038.5833
535.4  1044.25
535.3  1021.3333
535.2  1034.5833
535.1  1049
535  1037
534.9  1042.0833
534.8  1046.0833
534.7  1049.9167
534.6  1072.1667
534.5  1073.5833
534.4  1078.1667
534.3  1075.5
534.2  1084
534.1  1094.25
534  1115.25
533.9  1111.4167
533.8  1098
533.7  1087.4167
533.6  1117.8333
533.5  1123.25
533.4  1109.5833
533.3  1121
533.2  1136.4167
533.1  1117.5
533  1110.75
532.9  1112.8333
532.8  1104.5833
532.7  1134.8333
532.6  1118.4167
532.5  1103.25
532.4  1110.8333
532.3  1112.8333
532.2  1090.5833
532.1  1094.3333
532  1086.3333
531.9  1083
531.8  1066.6667
531.7  1071.9167
531.6  1044
531.5  1064.75
531.4  1072.5
531.3  1044.4167
531.2  1030.9167
531.1  1030.5833
531  1051.4167
530.9  1032.75
530.8  1014.25
530.7  1018.4167
530.6  1003.1667
530.5  1011.0833
530.4  1014.1667
530.3  1001.4167
530.2  992.66667
530.1  993.41667
530  996.83333
529.9  975.91667
529.8  974.16667
529.7  987.16667
529.6  995.5
529.5  982.83333
529.4  985.08333
529.3  990.41667
529.2  991.41667
529.1  979.33333
529  985
528.9  968.83333
528.8  984.83333
528.7  992.58333
528.6  978.5
528.5  977.91667
528.4  972.58333
528.3  973.5
528.2  977
528.1  971.16667
528  979.25
527.9  942.83333
527.8  970.91667
527.7  962.91667
527.6  964.08333
527.5  975.33333
527.4  975.16667
527.3  958.08333
527.2  969.16667
527.1  969.5
527  958.16667
526.9  975.08333
526.8  966.41667
526.7  970.91667
526.6  958.91667
526.5  962.66667
526.4  978.08333
526.3  976.41667
526.2  969.66667
526.1  950.33333
526  972.75
525.9  961.41667
525.8  961
525.7  973.33333
525.6  955.58333
525.5  980.91667
525.4  974.58333
525.3  964.5
525.2  965.25
525.1  974.08333
525  969.08333

# Operation:         Peak Fit
# Range Start:       542
# Range End:         526.479
# Parameter: "Transition" = 
# Parameter: "Label" = 
# Parameter: "Background Method" = Tougaard
# Parameter: "Peak Shape" = Voigt
# Parameter: "Asymmetric Peak" = false
# Parameter: "FWHM-Annotation" = S-B = <Signal-BG:@>\nFWHM = <FWHM:@>\nArea = <Area:@>
# Parameter: "Peak-Annotation" = <Label>\n<Transition>\nE = <Center:@>
#
# Result:
# Number of Results: 2
# Parameter: "Transition" = 
# Parameter: "Label" = 
# Parameter: "Center" = 532.88409609751238 eV +- 0.029959367652168112
# Parameter: "Area" = 574.80360622244882 cps eV +- 47.908031120047951
# Parameter: "FWHM Lorentzian" = 0.92298551833144749 eV +- 0.51761229701044353
# Parameter: "FWHM Gaussian" = 2.8168398871132765 eV +- 0.33345179618642651
# Parameter: "Asymmetry" = 0 +- 0
# Parameter: "Tougaard B" = 68505.670234184625 eV^2 +- 2773.4371843338836
# Parameter: "Tougaard C" = 1643 eV^2 +- 0
# Parameter: "FWHM" = 3.3428327066045886 eV
# Parameter: "Offset (0th order)" = 966.92829045461383 cps +- 3.3573257328469595
# Parameter: "Abbe factor" = 0.89896728625447531
# Parameter: "Reduced Chi Square" = 1.1257292217830608
# Parameter: "Q Probability" = 0.13983917733163295
# Parameter: "Number of performed iterations" = 13
# Parameter: "Fit termination reason" = ConvergedInParameter
# Parameter: "Signal" = 1120.8248141152428 cps
# Parameter: "Signal-BG" = 144.4853222091883 cps
#
# Result Name:       Background
# Number of Curves:  1
#
# Curve:             0
# Values/Curve:      94
#
542  1133.3302
541.83333  1128.8841
541.66667  1124.524
541.5  1120.2475
541.33333  1116.0522
541.16667  1111.9359
541  1107.8965
540.83333  1103.9317
540.66667  1100.0395
540.5  1096.2178
540.33333  1092.4646
540.16667  1088.7779
540  1085.1558
539.83333  1081.5964
539.66667  1078.0979
539.5  1074.6585
539.33333  1071.2763
539.16667  1067.9498
539  1064.6771
538.83333  1061.4568
538.66667  1058.2871
538.5  1055.1666
538.33333  1052.0937
538.16667  1049.067
538  1046.0851
537.83333  1043.1466
537.66667  1040.2502
537.5  1037.3948
537.33333  1034.5791
537.16667  1031.8021
537  1029.0628
536.83333  1026.3604
536.66667  1023.6943
536.5  1021.0639
536.33333  1018.4688
536.16667  1015.9092
536  1013.3852
535.83333  1010.8975
535.66667  1008.4472
535.5  1006.0358
535.33333  1003.6654
535.16667  1001.3387
535  999.05896
534.83333  996.83014
534.66667  994.65677
534.5  992.54396
534.33333  990.49727
534.16667  988.52262
534  986.62608
533.83333  984.81371
533.66667  983.09128
533.5  981.46405
533.33333  979.93654
533.16667  978.51227
533  977.19363
532.83333  975.98166
532.66667  974.87604
532.5  973.87504
532.33333  972.97559
532.16667  972.17338
532  971.46305
531.83333  970.83839
531.66667  970.29258
531.5  969.81842
531.33333  969.40859
531.16667  969.05588
531  968.7533
530.83333  968.49432
530.66667  968.27291
530.5  968.08363
530.33333  967.92167
530.16667  967.78283
530  967.66349
529.83333  967.56058
529.66667  967.47154
529.5  967.39422
529.33333  967.32687
529.16667  967.26804
529  967.21653
528.83333  967.17138
528.66667  967.13178
528.5  967.09708
528.33333  967.06675
528.16667  967.04031
528  967.0174
527.83333  966.99768
527.66667  966.98088
527.5  966.96677
527.33333  966.95513
527.16667  966.94578
527  966.93855
526.83333  966.93331
526.66667  966.92993
526.5  966.92829

# Result Name:       Peak Fit
# Number of Curves:  1
#
# Curve:             0
# Values/Curve:      94
#
542  1134.4008
541.83333  1129.9973
541.66667  1125.6825
541.5  1121.4541
541.33333  1117.31
541.16667  1113.2485
541  1109.2675
540.83333  1105.3653
540.66667  1101.5401
540.5  1097.7905
540.33333  1094.1149
540.16667  1090.5119
540  1086.9803
539.83333  1083.5191
539.66667  1080.1272
539.5  1076.8041
539.33333  1073.5492
539.16667  1070.3623
539  1067.2436
538.83333  1064.1938
538.66667  1061.2138
538.5  1058.3056
538.33333  1055.4719
538.16667  1052.7166
538  1050.0449
537.83333  1047.4643
537.66667  1044.9844
537.5  1042.6184
537.33333  1040.3832
537.16667  1038.3008
537  1036.3994
536.83333  1034.7142
536.66667  1033.2889
536.5  1032.1759
536.33333  1031.4374
536.16667  1031.1445
536  1031.3759
535.83333  1032.2158
535.66667  1033.7491
535.5  1036.0562
535.33333  1039.205
535.16667  1043.2427
535  1048.186
534.83333  1054.0111
534.66667  1060.6461
534.5  1067.9639
534.33333  1075.7798
534.16667  1083.8536
534  1091.8959
533.83333  1099.5815
533.66667  1106.566
533.5  1112.5077
533.33333  1117.0904
533.16667  1120.0465
533  1121.1777
532.83333  1120.3707
532.66667  1117.6059
532.5  1112.9597
532.33333  1106.5973
532.16667  1098.7604
532  1089.7475
531.83333  1079.8921
531.66667  1069.5388
531.5  1059.0216
531.33333  1048.6443
531.16667  1038.6663
531  1029.2932
530.83333  1020.6733
530.66667  1012.8984
530.5  1006.0086
530.33333  1000.0009
530.16667  994.83746
530  990.45611
529.83333  986.77907
529.66667  983.72105
529.5  981.19573
529.33333  979.12048
529.16667  977.41956
529  976.02593
528.83333  974.88192
528.66667  973.9391
528.5  973.15763
528.33333  972.50526
528.16667  971.95623
528  971.49019
527.83333  971.09116
527.66667  970.74665
527.5  970.44687
527.33333  970.18418
527.16667  969.95255
527  969.74721
526.83333  969.56432
526.66667  969.40081
526.5  969.25414

# Region:            N 1s
# Acquisition Date:  09/01/22 10:19:48 UTC
# Analysis Method:   XPS
# Analyzer:          Phoibos 100 R6
# Analyzer Lens:     LargeArea:1.5kV
# Analyzer Slit:     5:7x20\B:open
# Scan Mode:         FixedAnalyzerTransmission
# Curves/Scan:       1
# Values/Curve:      101
# Dwell Time:        0.8
# Excitation Energy: 1486.61
# Binding Energy:    405
# Pass Energy:       30
# Bias Voltage:      90
# Detector Voltage:  2600
# Eff. Workfunction: 4.309
# Source:            X-Ray Dummy
# Comment:           
#
# Cycle: 0
# Number of Scans: 15
#
# Cycle: 0, Curve: 0
# Acquisition Date: 09/01/22 10:19:48 UTC
#
# ColumnLabels: energy counts/s
#
405  917.75
404.9  919.66667
404.8  898.25
404.7  929.66667
404.6  904.25
404.5  924.58333
404.4  912
404.3  916.58333
404.2  911
404.1  915.25
404  921.25
403.9  906.25
403.8  906.91667
403.7  899.91667
403.6  919.5
403.5  921.75
403.4  940.83333
403.3  936
403.2  908.5
403.1  908.5
403  909.16667
402.9  912.25
402.8  912.66667
402.7  923.75
402.6  923.25
402.5  898.75
402.4  932.16667
402.3  926.75
402.2  924
402.1  911.91667
402  931.91667
401.9  916.66667
401.8  924.08333
401.7  919.83333
401.6  931.25
401.5  915.25
401.4  919.75
401.3  930.66667
401.2  938.08333
401.1  914
401  923.75
400.9  938.58333
400.8  935.5
400.7  930.08333
400.6  925.41667
400.5  923.41667
400.4  935.66667
400.3  935.58333
400.2  913.83333
400.1  928
400  929.91667
399.9  924.91667
399.8  939.16667
399.7  925.41667
399.6  925.08333
399.5  917.83333
399.4  902.75
399.3  907.66667
399.2  912.91667
399.1  919.83333
399  908.58333
398.9  911.25
398.8  902.91667
398.7  912.25
398.6  916.41667
398.5  907.75
398.4  908.16667
398.3  892.75
398.2  893.83333
398.1  880.66667
398  890.16667
397.9  890.5
397.8  893.66667
397.7  910.33333
397.6  900.75
397.5  881.83333
397.4  887.66667
397.3  897.5
397.2  896.16667
397.1  893.33333
397  883.91667
396.9  893.66667
396.8  894.75
396.7  889.58333
396.6  870.66667
396.5  884.41667
396.4  903.33333
396.3  879.83333
396.2  879.75
396.1  886.33333
396  878.41667
395.9  893.83333
395.8  886.83333
395.7  883.5
395.6  887.33333
395.5  888.41667
395.4  899.58333
395.3  888.25
395.2  902.16667
395.1  889.25
395  897.08333

# Region:            Si 2p
# Acquisition Date:  09/01/22 09:24:25 UTC
# Analysis Method:   XPS
# Analyzer:          Phoibos 100 R6
# Analyzer Lens:     LargeArea:1.5kV
# Analyzer Slit:     5:7x20\B:open
# Scan Mode:         FixedAnalyzerTransmission
# Curves/Scan:       1
# Values/Curve:      111
# Dwell Time:        0.8
# Excitation Energy: 1486.61
# Binding Energy:    112
# Pass Energy:       30
# Bias Voltage:      90
# Detector Voltage:  2600
# Eff. Workfunction: 4.309
# Source:            X-Ray Dummy
# Comment:           
#
# Cycle: 0
# Number of Scans: 2
#
# Cycle: 0, Curve: 0
# Acquisition Date: 09/01/22 09:24:25 UTC
#
# ColumnLabels: energy counts/s
#
112  931.25
111.9  946.875
111.8  898.125
111.7  923.125
111.6  894.375
111.5  918.125
111.4  873.125
111.3  941.875
111.2  928.75
111.1  880
111  938.75
110.9  903.75
110.8  930.625
110.7  968.125
110.6  869.375
110.5  838.125
110.4  895.625
110.3  916.25
110.2  905
110.1  889.375
110  876.875
109.9  885
109.8  883.75
109.7  900
109.6  900
109.5  920.625
109.4  900
109.3  925
109.2  881.875
109.1  905.625
109  858.125
108.9  897.5
108.8  881.875
108.7  853.125
108.6  836.25
108.5  960
108.4  922.5
108.3  903.75
108.2  882.5
108.1  893.75
108  867.5
107.9  851.25
107.8  892.5
107.7  890
107.6  922.5
107.5  900.625
107.4  873.75
107.3  886.25
107.2  891.25
107.1  888.125
107  901.875
106.9  923.75
106.8  897.5
106.7  873.75
106.6  920.625
106.5  893.75
106.4  903.125
106.3  916.875
106.2  921.875
106.1  924.375
106  912.5
105.9  886.25
105.8  890
105.7  919.375
105.6  951.25
105.5  926.25
105.4  939.375
105.3  959.375
105.2  930
105.1  847.5
105  909.375
104.9  911.875
104.8  896.25
104.7  897.5
104.6  944.375
104.5  898.125
104.4  895
104.3  914.375
104.2  952.5
104.1  940
104  883.125
103.9  919.375
103.8  941.875
103.7  904.375
103.6  952.5
103.5  941.25
103.4  980
103.3  935
103.2  920
103.1  973.125
103  961.25
102.9  1008.75
102.8  934.375
102.7  956.25
102.6  905
102.5  910
102.4  902.5
102.3  926.875
102.2  983.125
102.1  948.75
102  958.125
101.9  950
101.8  945
101.7  965
101.6  953.125
101.5  945.625
101.4  937.5
101.3  949.375
101.2  943.125
101.1  960
101  944.375

# Region:            Cu 2p
# Acquisition Date:  09/01/22 09:13:54 UTC
# Analysis Method:   XPS
# Analyzer:          Phoibos 100 R6
# Analyzer Lens:     LargeArea:1.5kV
# Analyzer Slit:     5:7x20\B:open
# Scan Mode:         FixedAnalyzerTransmission
# Curves/Scan:       1
# Values/Curve:      341
# Dwell Time:        0.8
# Excitation Energy: 1486.61
# Binding Energy:    960
# Pass Energy:       30
# Bias Voltage:      90
# Detector Voltage:  2600
# Eff. Workfunction: 4.309
# Source:            X-Ray Dummy
# Comment:           
#
# Cycle: 0
# Number of Scans: 1
#
# Cycle: 0, Curve: 0
# Acquisition Date: 09/01/22 09:13:54 UTC
#
# ColumnLabels: energy counts/s
#
960  12577.5
959.9  12375
959.8  12493.75
959.7  12463.75
959.6  12410
959.5  12513.75
959.4  12441.25
959.3  12351.25
959.2  12443.75
959.1  12530
959  12598.75
958.9  12633.75
958.8  12592.5
958.7  12805
958.6  12717.5
958.5  12612.5
958.4  12488.75
958.3  12433.75
958.2  12788.75
958.1  12686.25
958  12730
957.9  12585
957.8  12668.75
957.7  12722.5
957.6  12953.75
957.5  12868.75
957.4  12832.5
957.3  12922.5
957.2  12873.75
957.1  12831.25
957  12930
956.9  12901.25
956.8  12677.5
956.7  12971.25
956.6  12907.5
956.5  12842.5
956.4  12968.75
956.3  13092.5
956.2  12902.5
956.1  13173.75
956  12948.75
955.9  13066.25
955.8  13542.5
955.7  13358.75
955.6  13201.25
955.5  13266.25
955.4  13341.25
955.3  13430
955.2  13477.5
955.1  13680
955  13802.5
954.9  13777.5
954.8  14135
954.7  14203.75
954.6  14293.75
954.5  14406.25
954.4  14812.5
954.3  14927.5
954.2  15241.25
954.1  15240
954  16031.25
953.9  16222.5
953.8  16426.25
953.7  16861.25
953.6  16953.75
953.5  17765
953.4  17741.25
953.3  18311.25
953.2  18513.75
953.1  18578.75
953  19158.75
952.9  19095
952.8  19352.5
952.7  19510
952.6  19131.25
952.5  18936.25
952.4  18840
952.3  18032.5
952.2  18191.25
952.1  17835
952  17476.25
951.9  16623.75
951.8  16447.5
951.7  15901.25
951.6  15475
951.5  14817.5
951.4  14927.5
951.3  14266.25
951.2  14101.25
951.1  13776.25
951  13398.75
950.9  13145
950.8  12895
950.7  12628.75
950.6  12567.5
950.5  12538.75
950.4  12456.25
950.3  12165
950.2  12242.5
950.1  12176.25
950  11970
949.9  12050
949.8  11807.5
949.7  11781.25
949.6  11991.25
949.5  11883.75
949.4  11621.25
949.3  11448.75
949.2  11733.75
949.1  11626.25
949  11273.75
948.9  11596.25
948.8  11783.75
948.7  11400
948.6  11452.5
948.5  11406.25
948.4  11405
948.3  11315
948.2  11466.25
948.1  11476.25
948  11381.25
947.9  11365
947.8  11351.25
947.7  11368.75
947.6  11437.5
947.5  11285
947.4  11262.5
947.3  11157.5
947.2  11332.5
947.1  11121.25
947  11425
946.9  11306.25
946.8  11310
946.7  10980
946.6  11293.75
946.5  11140
946.4  11147.5
946.3  11142.5
946.2  11053.75
946.1  11047.5
946  11115
945.9  11170
945.8  10831.25
945.7  10891.25
945.6  11048.75
945.5  10896.25
945.4  10922.5
945.3  10788.75
945.2  10860
945.1  10640
945  10781.25
944.9  10817.5
944.8  10591.25
944.7  10750
944.6  10906.25
944.5  10825
944.4  10942.5
944.3  10795
944.2  10811.25
944.1  10888.75
944  10720
943.9  10615
943.8  10660
943.7  10790
943.6  10776.25
943.5  10991.25
943.4  10870
943.3  10670
943.2  10565
943.1  10843.75
943  10652.5
942.9  10760
942.8  10668.75
942.7  10352.5
942.6  10401.25
942.5  10722.5
942.4  10348.75
942.3  10350
942.2  10162.5
942.1  10253.75
942  10315
941.9  10320
941.8  10141.25
941.7  10026.25
941.6  10098.75
941.5  10146.25
941.4  9895
941.3  9985
941.2  9892.5
941.1  9800
941  9856.25
940.9  9846.25
940.8  9690
940.7  9655
940.6  9768.75
940.5  9698.75
940.4  9700
940.3  9683.75
940.2  9636.25
940.1  9888.75
940  9845
939.9  9702.5
939.8  9725
939.7  9651.25
939.6  9670
939.5  9395
939.4  9528.75
939.3  9576.25
939.2  9527.5
939.1  9667.5
939  9350
938.9  9541.25
938.8  9528.75
938.7  9548.75
938.6  9511.25
938.5  9627.5
938.4  9662.5
938.3  9615
938.2  9451.25
938.1  9515
938  9858.75
937.9  9703.75
937.8  9622.5
937.7  9543.75
937.6  9830
937.5  9818.75
937.4  9955
937.3  9878.75
937.2  9803.75
937.1  10025
937  9958.75
936.9  9922.5
936.8  10045
936.7  9958.75
936.6  10065
936.5  10130
936.4  10121.25
936.3  10153.75
936.2  10178.75
936.1  10270
936  10396.25
935.9  10313.75
935.8  10332.5
935.7  10356.25
935.6  10420
935.5  10480
935.4  10721.25
935.3  11076.25
935.2  11026.25
935.1  10980
935  11546.25
934.9  11810
934.8  12031.25
934.7  12628.75
934.6  12788.75
934.5  13247.5
934.4  14145
934.3  14560
934.2  15377.5
934.1  16687.5
934  17302.5
933.9  18392.5
933.8  19402.5
933.7  20532.5
933.6  21962.5
933.5  23276.25
933.4  24053.75
933.3  25397.5
933.2  26365
933.1  27367.5
933  27460
932.9  27715
932.8  27756.25
932.7  27025
932.6  26106.25
932.5  25716.25
932.4  24376.25
932.3  23377.5
932.2  21553.75
932.1  20213.75
932  18512.5
931.9  17236.25
931.8  15732.5
931.7  14496.25
931.6  13683.75
931.5  12678.75
931.4  12050
931.3  11571.25
931.2  11078.75
931.1  10630
931  10386.25
930.9  9910
930.8  9710
930.7  9558.75
930.6  9337.5
930.5  9138.75
930.4  8918.75
930.3  8661.25
930.2  8713.75
930.1  8742.5
930  8687.5
929.9  8647.5
929.8  8497.5
929.7  8425
929.6  8588.75
929.5  8458.75
929.4  8432.5
929.3  8106.25
929.2  8208.75
929.1  8112.5
929  7948.75
928.9  8017.5
928.8  7983.75
928.7  8202.5
928.6  8230
928.5  7952.5
928.4  7897.5
928.3  8201.25
928.2  7887.5
928.1  7932.5
928  7765
927.9  8138.75
927.8  8068.75
927.7  8010
927.6  7858.75
927.5  7932.5
927.4  8035
927.3  7895
927.2  7953.75
927.1  8033.75
927  7965
926.9  7791.25
926.8  7870
926.7  7868.75
926.6  7968.75
926.5  8065
926.4  7961.25
926.3  7978.75
926.2  7766.25
926.1  7897.5
926  7946.25

# Region:            Cl 2p
# Acquisition Date:  09/01/22 09:25:54 UTC
# Analysis Method:   XPS
# Analyzer:          Phoibos 100 R6
# Analyzer Lens:     LargeArea:1.5kV
# Analyzer Slit:     5:7x20\B:open
# Scan Mode:         FixedAnalyzerTransmission
# Curves/Scan:       1
# Values/Curve:      111
# Dwell Time:        0.8
# Excitation Energy: 1486.61
# Binding Energy:    207
# Pass Energy:       30
# Bias Voltage:      90
# Detector Voltage:  2600
# Eff. Workfunction: 4.309
# Source:            X-Ray Dummy
# Comment:           
#
# Cycle: 0
# Number of Scans: 2
#
# Cycle: 0, Curve: 0
# Acquisition Date: 09/01/22 09:25:54 UTC
#
# ColumnLabels: energy counts/s
#
207  872.5
206.9  885
206.8  913.125
206.7  905.625
206.6  871.25
206.5  908.75
206.4  858.125
206.3  898.75
206.2  924.375
206.1  867.5
206  901.25
205.9  918.125
205.8  864.375
205.7  921.875
205.6  873.75
205.5  886.25
205.4  877.5
205.3  929.375
205.2  889.375
205.1  893.75
205  860.625
204.9  921.25
204.8  925.625
204.7  959.375
204.6  937.5
204.5  883.125
204.4  909.375
204.3  890
204.2  895.625
204.1  908.75
204  891.25
203.9  879.375
203.8  883.75
203.7  842.5
203.6  870.625
203.5  886.875
203.4  886.25
203.3  891.875
203.2  959.375
203.1  902.5
203  926.875
202.9  896.875
202.8  881.25
202.7  927.5
202.6  898.125
202.5  922.5
202.4  936.25
202.3  918.75
202.2  891.25
202.1  935.625
202  934.375
201.9  918.125
201.8  916.25
201.7  919.375
201.6  935
201.5  976.875
201.4  971.875
201.3  1043.75
201.2  986.875
201.1  1020
201  1030
200.9  1066.25
200.8  1007.5
200.7  1033.125
200.6  1102.5
200.5  1136.25
200.4  1088.75
200.3  1123.125
200.2  1169.375
200.1  1118.125
200  1146.875
199.9  1160.625
199.8  1136.875
199.7  1177.5
199.6  1194.375
199.5  1176.875
199.4  1175
199.3  1210
199.2  1158.75
199.1  1197.5
199  1221.875
198.9  1218.125
198.8  1188.75
198.7  1245.625
198.6  1246.875
198.5  1235.625
198.4  1157.5
198.3  1156.875
198.2  1163.125
198.1  1118.75
198  1078.75
197.9  1016.875
197.8  998.75
197.7  985
197.6  968.75
197.5  945.625
197.4  949.375
197.3  896.875
197.2  919.375
197.1  941.25
197  874.375
196.9  883.75
196.8  903.125
196.7  871.25
196.6  904.375
196.5  891.875
196.4  877.5
196.3  931.875
196.2  863.125
196.1  886.25
196  855

