# Created by:        SpecsLab Prodigy, Version 4.60.2-r85849 
#
# XY-Serializer Export Settings:
#   Comment Prefix:           #
#   Output meta data:         yes
#   Energy Axis:              Binding Energy
#   Count Rate:               Counts per Second
#   Separate Scan Data:       no
#   Separate Channel Data:    no
#   External Channel Data:    yes
#   Transmission Function:    no
#   ErrorBar:                 no
#   Operation Results:        yes
#   Time Zone Format:         UTC
#
# Group:             Spectrum Group
#
# Region:            C1s
# Acquisition Date:  09/07/22 11:20:23 UTC
# Analysis Method:   XPS
# Analyzer:          Phoibos 100 R6
# Analyzer Lens:     LargeArea:1.5kV
# Analyzer Slit:     1:0.2x20\B:open
# Scan Mode:         FixedAnalyzerTransmission
# Curves/Scan:       1
# Values/Curve:      151
# Dwell Time:        0.8
# Excitation Energy: 1486.61
# Binding Energy:    295
# Pass Energy:       30
# Bias Voltage:      90
# Detector Voltage:  2600
# Eff. Workfunction: 4.309
# Source:            X-Ray Dummy
# Comment:           
#
# Cycle: 0
# Number of Scans: 3
#
# Cycle: 0, Curve: 0
# Acquisition Date: 09/07/22 11:20:23 UTC
#
# ColumnLabels: energy counts/s
#
295  675.41667
294.9  714.58333
294.8  713.75
294.7  706.66667
294.6  684.58333
294.5  675.83333
294.4  702.5
294.3  706.66667
294.2  694.16667
294.1  687.08333
294  742.5
293.9  717.5
293.8  683.75
293.7  693.33333
293.6  692.08333
293.5  706.66667
293.4  689.16667
293.3  675.41667
293.2  677.91667
293.1  690.41667
293  696.25
292.9  682.91667
292.8  689.16667
292.7  695
292.6  691.66667
292.5  690
292.4  693.33333
292.3  705.83333
292.2  707.08333
292.1  710.83333
292  706.25
291.9  694.16667
291.8  712.08333
291.7  683.75
291.6  748.75
291.5  687.91667
291.4  699.16667
291.3  689.16667
291.2  720
291.1  696.25
291  698.75
290.9  673.75
290.8  694.58333
290.7  674.16667
290.6  658.75
290.5  707.91667
290.4  680.83333
290.3  692.5
290.2  726.25
290.1  694.16667
290  699.16667
289.9  700.41667
289.8  695.41667
289.7  679.16667
289.6  660
289.5  703.75
289.4  704.58333
289.3  709.58333
289.2  727.08333
289.1  698.33333
289  686.66667
288.9  692.91667
288.8  697.91667
288.7  712.5
288.6  707.91667
288.5  652.08333
288.4  707.08333
288.3  690.83333
288.2  671.25
288.1  685.41667
288  718.75
287.9  685.41667
287.8  722.91667
287.7  713.33333
287.6  685.41667
287.5  697.91667
287.4  695.41667
287.3  714.58333
287.2  682.08333
287.1  686.66667
287  697.08333
286.9  716.66667
286.8  734.16667
286.7  724.58333
286.6  700
286.5  697.5
286.4  690.41667
286.3  709.58333
286.2  760.83333
286.1  690.41667
286  695
285.9  689.16667
285.8  721.25
285.7  706.25
285.6  685.83333
285.5  696.66667
285.4  692.91667
285.3  666.25
285.2  709.58333
285.1  734.16667
285  682.08333
284.9  686.25
284.8  691.66667
284.7  713.33333
284.6  717.08333
284.5  717.91667
284.4  713.75
284.3  712.91667
284.2  695.83333
284.1  725.83333
284  717.91667
283.9  733.75
283.8  715
283.7  729.58333
283.6  704.58333
283.5  698.75
283.4  697.5
283.3  690.83333
283.2  728.75
283.1  685
283  693.75
282.9  689.58333
282.8  725
282.7  676.66667
282.6  693.33333
282.5  723.75
282.4  676.66667
282.3  711.66667
282.2  720
282.1  702.91667
282  722.91667
281.9  685.41667
281.8  675.41667
281.7  702.08333
281.6  732.08333
281.5  705.83333
281.4  689.58333
281.3  715.41667
281.2  712.5
281.1  704.16667
281  678.33333
280.9  699.16667
280.8  690
280.7  672.08333
280.6  668.33333
280.5  740.41667
280.4  683.33333
280.3  695.83333
280.2  724.16667
280.1  672.5
280  695

# Region:            overview
# Acquisition Date:  09/07/22 10:58:31 UTC
# Analysis Method:   XPS
# Analyzer:          Phoibos 100 R6
# Analyzer Lens:     MediumArea:1.5kV
# Analyzer Slit:     1:0.2x20\B:open
# Scan Mode:         FixedAnalyzerTransmission
# Curves/Scan:       1
# Values/Curve:      1205
# Dwell Time:        0.2
# Excitation Energy: 1486.61
# Binding Energy:    1200
# Pass Energy:       50
# Bias Voltage:      90
# Detector Voltage:  2600
# Eff. Workfunction: 4.309
# Source:            X-Ray Dummy
# Comment:           
#
# Cycle: 0
# Number of Scans: 1
#
# Cycle: 0, Curve: 0
# Acquisition Date: 09/07/22 10:58:31 UTC
#
# ColumnLabels: energy counts/s
#
1200  5955
1199  6360
1198  6015
1197  6020
1196  6115
1195  5940
1194  6325
1193  6300
1192  6265
1191  5975
1190  6145
1189  6000
1188  5990
1187  5855
1186  5780
1185  5835
1184  5755
1183  5750
1182  5755
1181  5415
1180  5470
1179  5475
1178  5460
1177  5345
1176  5450
1175  5315
1174  5710
1173  5200
1172  5620
1171  5420
1170  5355
1169  5560
1168  5585
1167  5505
1166  5440
1165  5555
1164  5695
1163  5910
1162  5610
1161  5625
1160  5510
1159  5690
1158  5460
1157  5615
1156  5775
1155  5195
1154  5820
1153  5730
1152  5570
1151  5630
1150  5350
1149  5165
1148  5480
1147  5575
1146  5345
1145  5205
1144  5295
1143  4935
1142  5010
1141  4875
1140  5100
1139  4840
1138  4770
1137  4665
1136  4625
1135  4465
1134  4725
1133  4705
1132  4490
1131  4635
1130  4540
1129  4205
1128  4300
1127  4290
1126  4460
1125  4330
1124  4315
1123  4280
1122  4250
1121  4335
1120  4415
1119  4315
1118  4285
1117  4140
1116  4210
1115  4200
1114  4185
1113  4065
1112  4290
1111  4200
1110  4140
1109  3980
1108  4375
1107  4555
1106  4235
1105  4115
1104  4170
1103  4495
1102  4380
1101  4145
1100  4475
1099  4205
1098  4405
1097  4560
1096  4645
1095  4545
1094  4840
1093  4880
1092  4910
1091  5090
1090  5265
1089  5345
1088  6210
1087  6400
1086  6375
1085  6155
1084  6045
1083  5380
1082  4935
1081  4985
1080  5000
1079  4740
1078  4850
1077  4325
1076  3955
1075  3760
1074  3590
1073  3310
1072  3425
1071  3325
1070  3650
1069  3475
1068  3355
1067  3445
1066  3460
1065  3630
1064  3585
1063  3425
1062  3610
1061  3250
1060  3415
1059  3510
1058  3210
1057  3505
1056  3070
1055  3055
1054  3410
1053  3245
1052  3090
1051  3110
1050  3135
1049  3075
1048  3020
1047  3030
1046  3170
1045  3070
1044  2995
1043  2890
1042  2850
1041  3145
1040  3135
1039  3050
1038  3120
1037  3400
1036  3015
1035  3165
1034  3085
1033  3065
1032  3020
1031  3235
1030  3175
1029  3235
1028  2965
1027  3125
1026  2910
1025  3125
1024  2970
1023  3270
1022  2885
1021  3470
1020  3315
1019  3050
1018  3050
1017  2875
1016  3230
1015  3070
1014  3160
1013  3000
1012  3370
1011  3240
1010  3250
1009  3105
1008  3320
1007  3195
1006  3340
1005  3215
1004  3320
1003  3200
1002  3195
1001  3180
1000  3190
999  3225
998  3135
997  3105
996  3205
995  3035
994  3165
993  3085
992  3235
991  3030
990  3175
989  3190
988  2975
987  3185
986  3465
985  3405
984  3265
983  3810
982  3410
981  3230
980  3155
979  3160
978  3230
977  3060
976  3370
975  3415
974  3235
973  3040
972  2930
971  2530
970  2850
969  2705
968  2555
967  2805
966  2545
965  2295
964  2655
963  2670
962  2310
961  2470
960  2620
959  2455
958  2470
957  2615
956  2615
955  2185
954  2420
953  2400
952  2605
951  2365
950  2385
949  2480
948  2625
947  2430
946  2410
945  2625
944  2635
943  2415
942  2490
941  2290
940  2390
939  2370
938  2615
937  2480
936  2425
935  2390
934  2510
933  2520
932  2255
931  2560
930  2530
929  2475
928  2585
927  2510
926  2375
925  2645
924  2495
923  2515
922  2500
921  2310
920  2425
919  2325
918  2470
917  2230
916  2515
915  2635
914  2525
913  2285
912  2445
911  2375
910  2285
909  2460
908  2655
907  2635
906  2520
905  2500
904  2420
903  2510
902  2470
901  2330
900  2615
899  2595
898  2435
897  2490
896  2590
895  2415
894  2465
893  2350
892  2670
891  2625
890  2525
889  2425
888  2585
887  2500
886  2270
885  2495
884  2625
883  2425
882  2535
881  2480
880  2630
879  2470
878  2365
877  2555
876  2585
875  2650
874  2370
873  2500
872  2425
871  2375
870  2475
869  2570
868  2430
867  2430
866  2400
865  2355
864  2395
863  2370
862  2520
861  2425
860  2555
859  2590
858  2360
857  2520
856  2630
855  2520
854  2655
853  2660
852  2580
851  2370
850  2510
849  2295
848  2535
847  2330
846  2610
845  2515
844  2645
843  2585
842  2645
841  2740
840  2610
839  2490
838  2665
837  2685
836  2775
835  2585
834  2435
833  2735
832  2570
831  2965
830  2885
829  2745
828  2645
827  2750
826  2775
825  2650
824  2500
823  2805
822  2725
821  2640
820  2670
819  2630
818  2755
817  2700
816  2635
815  2565
814  2490
813  2660
812  2570
811  2595
810  2580
809  2435
808  2705
807  2695
806  2635
805  2650
804  2640
803  2585
802  2485
801  2645
800  2570
799  2455
798  2610
797  2625
796  2710
795  2515
794  2410
793  2575
792  2710
791  2490
790  2530
789  2640
788  2530
787  2800
786  2510
785  2650
784  2525
783  2545
782  2450
781  2595
780  2720
779  2530
778  2625
777  2930
776  2520
775  2420
774  2690
773  2440
772  2725
771  2585
770  2695
769  2595
768  2730
767  2645
766  2610
765  2505
764  2820
763  2740
762  2790
761  2870
760  2605
759  2575
758  2775
757  2585
756  2685
755  2730
754  2815
753  2820
752  2570
751  2495
750  2515
749  2645
748  2570
747  2565
746  2515
745  2790
744  2880
743  2450
742  2700
741  2675
740  2720
739  2665
738  2600
737  2515
736  2870
735  2690
734  2760
733  2660
732  2790
731  2825
730  2795
729  2825
728  2755
727  2775
726  2740
725  2955
724  2855
723  2660
722  2665
721  3010
720  3040
719  2635
718  2880
717  2910
716  3030
715  2840
714  3050
713  2895
712  2875
711  2840
710  2915
709  2935
708  3195
707  3460
706  3575
705  4215
704  3740
703  3540
702  3170
701  3115
700  2880
699  2920
698  2690
697  2795
696  2740
695  2900
694  2685
693  3100
692  2750
691  2755
690  2740
689  2660
688  2665
687  3045
686  3150
685  2845
684  2775
683  2565
682  2770
681  2720
680  2750
679  2915
678  2660
677  2790
676  2805
675  3070
674  2675
673  3025
672  2865
671  3265
670  3470
669  3685
668  4155
667  4905
666  4905
665  4575
664  3740
663  3275
662  2880
661  2840
660  2795
659  2850
658  2570
657  2725
656  2605
655  2605
654  2745
653  2390
652  2450
651  2710
650  2375
649  2245
648  2530
647  2510
646  2590
645  2735
644  2490
643  2550
642  2570
641  2410
640  2485
639  2605
638  2350
637  2315
636  2395
635  2520
634  2360
633  2555
632  2395
631  2460
630  2430
629  2625
628  2705
627  2450
626  2620
625  2745
624  2610
623  2580
622  2370
621  2680
620  2335
619  2445
618  2545
617  2655
616  2490
615  2495
614  2570
613  2600
612  2660
611  2440
610  2435
609  2420
608  2610
607  2515
606  2525
605  2540
604  2555
603  2535
602  2565
601  2640
600  2705
599  2430
598  2420
597  2785
596  2595
595  2665
594  2565
593  2575
592  2545
591  2505
590  2690
589  2585
588  2915
587  2610
586  2400
585  2630
584  2745
583  2655
582  2620
581  2840
580  2720
579  2680
578  2730
577  2775
576  2745
575  2945
574  2575
573  2925
572  2640
571  2690
570  2645
569  2515
568  2940
567  2655
566  2615
565  2790
564  2905
563  2935
562  2710
561  2780
560  2910
559  3200
558  3175
557  2870
556  2850
555  2720
554  2975
553  2670
552  2710
551  2675
550  2745
549  2605
548  2830
547  2660
546  2895
545  2465
544  2460
543  2420
542  2500
541  2525
540  2705
539  2605
538  3375
537  5010
536  5350
535  3875
534  3100
533  2950
532  3420
531  4505
530  3970
529  2925
528  2410
527  2340
526  2470
525  2360
524  2450
523  2180
522  2330
521  2460
520  2425
519  2410
518  2255
517  2250
516  2290
515  2335
514  2290
513  2230
512  2265
511  2300
510  2240
509  2400
508  2310
507  2410
506  2520
505  2195
504  2300
503  2230
502  2405
501  2205
500  2230
499  2255
498  2440
497  2615
496  2710
495  2340
494  2465
493  2190
492  2445
491  2325
490  2300
489  2385
488  2615
487  2895
486  2620
485  2310
484  2115
483  2455
482  2200
481  2220
480  2390
479  2350
478  2380
477  2145
476  2125
475  2325
474  2290
473  2470
472  2340
471  2435
470  2540
469  2430
468  2260
467  3010
466  2600
465  2640
464  2455
463  2555
462  2495
461  2400
460  2345
459  2545
458  2525
457  2725
456  2695
455  3295
454  5490
453  8400
452  7420
451  3800
450  2785
449  2675
448  2870
447  4630
446  8870
445  10560
444  7100
443  3460
442  2020
441  1650
440  1340
439  1405
438  1320
437  1330
436  1655
435  1635
434  1665
433  1350
432  1235
431  940
430  950
429  990
428  990
427  1100
426  1015
425  980
424  995
423  1010
422  1005
421  1055
420  980
419  1020
418  1045
417  930
416  855
415  1000
414  975
413  900
412  1095
411  955
410  1070
409  860
408  905
407  955
406  840
405  735
404  880
403  960
402  870
401  980
400  955
399  780
398  970
397  970
396  925
395  1050
394  1010
393  940
392  970
391  945
390  1005
389  915
388  975
387  865
386  1030
385  975
384  865
383  1135
382  1065
381  1125
380  835
379  895
378  945
377  1015
376  1010
375  1040
374  935
373  910
372  880
371  870
370  970
369  755
368  1015
367  835
366  870
365  930
364  940
363  935
362  765
361  810
360  890
359  840
358  915
357  840
356  825
355  885
354  960
353  715
352  940
351  895
350  850
349  905
348  920
347  950
346  825
345  760
344  880
343  1035
342  955
341  830
340  890
339  915
338  915
337  885
336  840
335  935
334  885
333  930
332  835
331  755
330  825
329  780
328  965
327  855
326  945
325  910
324  945
323  895
322  945
321  935
320  825
319  1050
318  1035
317  930
316  930
315  790
314  980
313  1105
312  905
311  1035
310  840
309  720
308  955
307  905
306  975
305  935
304  845
303  870
302  925
301  960
300  890
299  865
298  900
297  810
296  1020
295  860
294  1025
293  810
292  970
291  910
290  920
289  1040
288  945
287  960
286  980
285  920
284  1000
283  890
282  995
281  1025
280  905
279  905
278  825
277  940
276  860
275  1050
274  975
273  990
272  1060
271  955
270  895
269  970
268  940
267  780
266  985
265  1055
264  1030
263  825
262  995
261  905
260  930
259  1130
258  1000
257  920
256  905
255  975
254  925
253  970
252  920
251  875
250  855
249  990
248  990
247  925
246  905
245  955
244  950
243  970
242  995
241  1100
240  985
239  925
238  1010
237  1015
236  1020
235  935
234  920
233  915
232  1010
231  960
230  965
229  970
228  1010
227  895
226  1025
225  990
224  965
223  890
222  1065
221  910
220  990
219  955
218  880
217  1110
216  960
215  920
214  940
213  1035
212  990
211  1075
210  945
209  1005
208  1030
207  1050
206  960
205  990
204  1015
203  945
202  940
201  960
200  885
199  900
198  1130
197  1070
196  995
195  975
194  1130
193  1125
192  1035
191  920
190  995
189  980
188  1005
187  1085
186  1140
185  1100
184  1110
183  975
182  1005
181  1080
180  1095
179  1000
178  1025
177  1105
176  1155
175  1055
174  990
173  980
172  1020
171  970
170  1245
169  850
168  945
167  950
166  1090
165  1050
164  885
163  1045
162  990
161  1090
160  1230
159  1330
158  1480
157  1390
156  1285
155  1130
154  1145
153  1035
152  1050
151  950
150  975
149  900
148  995
147  860
146  1035
145  980
144  1040
143  960
142  1045
141  1000
140  965
139  1010
138  925
137  990
136  930
135  910
134  930
133  995
132  940
131  1010
130  830
129  1090
128  1045
127  1285
126  1045
125  1300
124  1095
123  1070
122  915
121  1005
120  985
119  1040
118  765
117  970
116  970
115  965
114  885
113  935
112  960
111  845
110  915
109  985
108  1425
107  1460
106  1240
105  1075
104  1005
103  905
102  1055
101  890
100  1060
99  925
98  890
97  1145
96  905
95  1180
94  1075
93  970
92  995
91  1010
90  965
89  1030
88  1000
87  970
86  1065
85  1090
84  1185
83  1255
82  1160
81  1030
80  1075
79  1110
78  1110
77  1035
76  995
75  1055
74  915
73  875
72  750
71  900
70  810
69  820
68  765
67  810
66  760
65  735
64  775
63  655
62  760
61  690
60  740
59  745
58  720
57  750
56  755
55  775
54  680
53  730
52  740
51  670
50  655
49  790
48  650
47  795
46  695
45  630
44  700
43  740
42  660
41  720
40  620
39  630
38  790
37  760
36  890
35  730
34  695
33  725
32  760
31  790
30  735
29  780
28  830
27  815
26  785
25  840
24  785
23  835
22  865
21  1075
20  1625
19  2505
18  2210
17  1325
16  735
15  660
14  550
13  545
12  645
11  580
10  660
9  705
8  710
7  675
6  755
5  505
4  530
3  490
2  440
1  360
-2.2737368e-013  535
-1  480
-2  405
-3  415
-4  450

# Region:            In3d
# Acquisition Date:  09/07/22 11:14:15 UTC
# Analysis Method:   XPS
# Analyzer:          Phoibos 100 R6
# Analyzer Lens:     LargeArea:1.5kV
# Analyzer Slit:     1:0.2x20\B:open
# Scan Mode:         FixedAnalyzerTransmission
# Curves/Scan:       1
# Values/Curve:      231
# Dwell Time:        0.8
# Excitation Energy: 1486.61
# Binding Energy:    460
# Pass Energy:       30
# Bias Voltage:      90
# Detector Voltage:  2600
# Eff. Workfunction: 4.309
# Source:            X-Ray Dummy
# Comment:           
#
# Cycle: 0
# Number of Scans: 2
#
# Cycle: 0, Curve: 0
# Acquisition Date: 09/07/22 11:14:15 UTC
#
# ColumnLabels: energy counts/s
#
460  2058.75
459.9  2056.875
459.8  1961.875
459.7  2008.75
459.6  2040
459.5  2063.125
459.4  2021.25
459.3  1977.5
459.2  2051.25
459.1  1989.375
459  2020
458.9  2015.625
458.8  2003.125
458.7  2021.875
458.6  2000.625
458.5  2053.75
458.4  2106.25
458.3  2033.75
458.2  2040
458.1  2028.75
458  2056.25
457.9  2066.875
457.8  2032.5
457.7  2071.875
457.6  2087.5
457.5  2096.25
457.4  2170
457.3  2143.75
457.2  2117.5
457.1  2167.5
457  2198.125
456.9  2240.625
456.8  2298.125
456.7  2291.875
456.6  2306.25
456.5  2318.75
456.4  2278.75
456.3  2298.125
456.2  2408.75
456.1  2375.625
456  2538.75
455.9  2412.5
455.8  2516.875
455.7  2483.75
455.6  2545
455.5  2525.625
455.4  2575
455.3  2627.5
455.2  2745
455.1  2693.75
455  2891.875
454.9  2932.5
454.8  2990
454.7  3223.125
454.6  3389.375
454.5  3573.125
454.4  3735
454.3  3879.375
454.2  4096.875
454.1  4306.25
454  4569.375
453.9  4831.25
453.8  5078.125
453.7  5380.625
453.6  5731.875
453.5  6007.5
453.4  6333.125
453.3  6616.25
453.2  6906.875
453.1  7074.375
453  7194.375
452.9  7298.75
452.8  7388.75
452.7  7415.625
452.6  7320.625
452.5  7146.875
452.4  6976.25
452.3  6801.875
452.2  6533.75
452.1  6213.75
452  5793.125
451.9  5471.25
451.8  4985.625
451.7  4544.375
451.6  4166.25
451.5  3701.875
451.4  3439.375
451.3  3263.125
451.2  2943.125
451.1  2755.625
451  2510.625
450.9  2397.5
450.8  2197.5
450.7  2180.625
450.6  2141.875
450.5  2138.75
450.4  1983.125
450.3  1925.625
450.2  1988.75
450.1  2004.375
450  1971.875
449.9  1890.625
449.8  1976.875
449.7  1920
449.6  1940.625
449.5  2028.125
449.4  1946.25
449.3  2046.875
449.2  2010
449.1  2056.875
449  2127.5
448.9  2138.75
448.8  2125
448.7  2107.5
448.6  2224.375
448.5  2209.375
448.4  2253.75
448.3  2314.375
448.2  2373.75
448.1  2360
448  2336.875
447.9  2491.25
447.8  2514.375
447.7  2660.625
447.6  2724.375
447.5  2961.875
447.4  3026.875
447.3  3191.875
447.2  3374.375
447.1  3561.25
447  3716.875
446.9  4137.5
446.8  4397.5
446.7  4649.375
446.6  5026.875
446.5  5325.625
446.4  5860
446.3  6104.375
446.2  6480
446.1  6978.75
446  7379.375
445.9  7806.25
445.8  8153.75
445.7  8527.5
445.6  8882.5
445.5  9075
445.4  9496.875
445.3  9471.25
445.2  9686.875
445.1  9583.125
445  9574.375
444.9  9337.5
444.8  9060
444.7  8516.25
444.6  8037.5
444.5  7555.625
444.4  6883.125
444.3  6394.375
444.2  5817.5
444.1  5347.5
444  4709.375
443.9  4329.375
443.8  3850.625
443.7  3578.75
443.6  3116.875
443.5  2988.75
443.4  2691.875
443.3  2480
443.2  2249.375
443.1  2228.125
443  2203.75
442.9  2018.75
442.8  2016.25
442.7  1866.25
442.6  1887.5
442.5  1888.125
442.4  1748.75
442.3  1670.625
442.2  1676.25
442.1  1647.5
442  1568.75
441.9  1540.625
441.8  1504.375
441.7  1460
441.6  1466.875
441.5  1424.375
441.4  1452.5
441.3  1391.25
441.2  1363.125
441.1  1353.75
441  1416.875
440.9  1368.125
440.8  1333.75
440.7  1294.375
440.6  1353.75
440.5  1290
440.4  1262.5
440.3  1294.375
440.2  1224.375
440.1  1212.5
440  1212.5
439.9  1223.125
439.8  1186.875
439.7  1183.125
439.6  1097.5
439.5  1151.25
439.4  1147.5
439.3  1091.25
439.2  1128.125
439.1  1106.25
439  1087.5
438.9  1095.625
438.8  1091.25
438.7  1087.5
438.6  1075.625
438.5  1071.25
438.4  1046.875
438.3  1062.5
438.2  1020.625
438.1  1016.875
438  1018.125
437.9  1056.875
437.8  1031.875
437.7  1083.125
437.6  1053.75
437.5  1094.375
437.4  1104.375
437.3  1099.375
437.2  1098.75
437.1  1169.375
437  1166.875

# Region:            Sn3d
# Acquisition Date:  09/07/22 11:04:59 UTC
# Analysis Method:   XPS
# Analyzer:          Phoibos 100 R6
# Analyzer Lens:     LargeArea:1.5kV
# Analyzer Slit:     1:0.2x20\B:open
# Scan Mode:         FixedAnalyzerTransmission
# Curves/Scan:       1
# Values/Curve:      231
# Dwell Time:        0.8
# Excitation Energy: 1486.61
# Binding Energy:    503
# Pass Energy:       30
# Bias Voltage:      90
# Detector Voltage:  2600
# Eff. Workfunction: 4.309
# Source:            X-Ray Dummy
# Comment:           
#
# Cycle: 0
# Number of Scans: 1
#
# Cycle: 0, Curve: 0
# Acquisition Date: 09/07/22 11:04:59 UTC
#
# ColumnLabels: energy counts/s
#
503  2070
502.9  2012.5
502.8  2000
502.7  2045
502.6  2065
502.5  1993.75
502.4  2036.25
502.3  2053.75
502.2  1912.5
502.1  1921.25
502  1920
501.9  2015
501.8  2107.5
501.7  1978.75
501.6  1981.25
501.5  2123.75
501.4  2027.5
501.3  1988.75
501.2  2023.75
501.1  2040
501  2018.75
500.9  2140
500.8  2043.75
500.7  1975
500.6  2013.75
500.5  1941.25
500.4  1978.75
500.3  1998.75
500.2  2013.75
500.1  2013.75
500  2006.25
499.9  2085
499.8  2015
499.7  2053.75
499.6  2096.25
499.5  1983.75
499.4  2031.25
499.3  1966.25
499.2  1997.5
499.1  1996.25
499  1983.75
498.9  1941.25
498.8  1961.25
498.7  1946.25
498.6  1982.5
498.5  2092.5
498.4  2058.75
498.3  1947.5
498.2  2037.5
498.1  1996.25
498  2007.5
497.9  2050
497.8  2033.75
497.7  1983.75
497.6  2067.5
497.5  2056.25
497.4  2050
497.3  2132.5
497.2  2043.75
497.1  2100
497  2128.75
496.9  2143.75
496.8  2101.25
496.7  2178.75
496.6  2175
496.5  2242.5
496.4  2246.25
496.3  2156.25
496.2  2333.75
496.1  2160
496  2253.75
495.9  2308.75
495.8  2155
495.7  2316.25
495.6  2337.5
495.5  2240
495.4  2313.75
495.3  2266.25
495.2  2203.75
495.1  2248.75
495  2263.75
494.9  2223.75
494.8  2107.5
494.7  2192.5
494.6  2145
494.5  1978.75
494.4  2057.5
494.3  2055
494.2  2077.5
494.1  2042.5
494  2086.25
493.9  2038.75
493.8  2066.25
493.7  1987.5
493.6  1947.5
493.5  1873.75
493.4  2015
493.3  2026.25
493.2  1963.75
493.1  1978.75
493  1936.25
492.9  1988.75
492.8  1876.25
492.7  1921.25
492.6  2006.25
492.5  1917.5
492.4  1950
492.3  1887.5
492.2  1957.5
492.1  1955
492  1880
491.9  2060
491.8  2022.5
491.7  1931.25
491.6  2003.75
491.5  1967.5
491.4  1985
491.3  1926.25
491.2  1952.5
491.1  1922.5
491  1962.5
490.9  2038.75
490.8  1958.75
490.7  1903.75
490.6  2065
490.5  1950
490.4  1973.75
490.3  1972.5
490.2  1971.25
490.1  2048.75
490  1972.5
489.9  2062.5
489.8  2041.25
489.7  1947.5
489.6  2052.5
489.5  2030
489.4  2016.25
489.3  2100
489.2  2021.25
489.1  1950
489  2067.5
488.9  2141.25
488.8  2110
488.7  2070
488.6  2167.5
488.5  2247.5
488.4  2145
488.3  2137.5
488.2  2153.75
488.1  2190
488  2268.75
487.9  2192.5
487.8  2378.75
487.7  2298.75
487.6  2285
487.5  2373.75
487.4  2347.5
487.3  2397.5
487.2  2372.5
487.1  2328.75
487  2421.25
486.9  2368.75
486.8  2377.5
486.7  2351.25
486.6  2338.75
486.5  2191.25
486.4  2305
486.3  2243.75
486.2  2162.5
486.1  2140
486  2298.75
485.9  2138.75
485.8  2098.75
485.7  2028.75
485.6  2131.25
485.5  2147.5
485.4  2072.5
485.3  1963.75
485.2  1982.5
485.1  2087.5
485  2045
484.9  1976.25
484.8  2056.25
484.7  2048.75
484.6  1943.75
484.5  1961.25
484.4  1891.25
484.3  2027.5
484.2  2000
484.1  2005
484  2035
483.9  1992.5
483.8  1863.75
483.7  2052.5
483.6  1945
483.5  1897.5
483.4  1967.5
483.3  1948.75
483.2  1873.75
483.1  1907.5
483  1928.75
482.9  1938.75
482.8  2021.25
482.7  1820
482.6  1947.5
482.5  1885
482.4  1960
482.3  1975
482.2  2080
482.1  1992.5
482  1870
481.9  1932.5
481.8  1928.75
481.7  1922.5
481.6  1866.25
481.5  1920
481.4  1947.5
481.3  1957.5
481.2  1948.75
481.1  2002.5
481  1953.75
480.9  1911.25
480.8  1992.5
480.7  1938.75
480.6  2005
480.5  2005
480.4  2036.25
480.3  1951.25
480.2  1912.5
480.1  1885
480  2015

# Region:            O1s
# Acquisition Date:  09/07/22 11:21:53 UTC
# Analysis Method:   XPS
# Analyzer:          Phoibos 100 R6
# Analyzer Lens:     LargeArea:1.5kV
# Analyzer Slit:     1:0.2x20\B:open
# Scan Mode:         FixedAnalyzerTransmission
# Curves/Scan:       1
# Values/Curve:      111
# Dwell Time:        0.8
# Excitation Energy: 1486.61
# Binding Energy:    538
# Pass Energy:       30
# Bias Voltage:      90
# Detector Voltage:  2600
# Eff. Workfunction: 4.309
# Source:            X-Ray Dummy
# Comment:           
#
# Cycle: 0
# Number of Scans: 3
#
# Cycle: 0, Curve: 0
# Acquisition Date: 09/07/22 11:21:53 UTC
#
# ColumnLabels: energy counts/s
#
538  3257.0833
537.9  3403.3333
537.8  3555
537.7  3732.5
537.6  3890
537.5  3988.75
537.4  4282.5
537.3  4331.25
537.2  4607.5
537.1  4845.8333
537  4947.9167
536.9  5191.6667
536.8  5138.3333
536.7  5250.4167
536.6  5356.6667
536.5  5351.6667
536.4  5229.5833
536.3  5184.5833
536.2  5135.4167
536.1  5047.0833
536  4917.9167
535.9  4730.8333
535.8  4544.5833
535.7  4346.25
535.6  4210
535.5  3951.25
535.4  3706.25
535.3  3562.5
535.2  3356.6667
535.1  3283.3333
535  3102.5
534.9  2945.4167
534.8  2865
534.7  2807.5
534.6  2737.0833
534.5  2704.5833
534.4  2644.1667
534.3  2592.0833
534.2  2588.75
534.1  2532.9167
534  2546.6667
533.9  2521.25
533.8  2510.4167
533.7  2577.0833
533.6  2502.5
533.5  2534.1667
533.4  2579.5833
533.3  2557.9167
533.2  2577.5
533.1  2636.6667
533  2548.75
532.9  2647.9167
532.8  2630.4167
532.7  2723.3333
532.6  2783.75
532.5  2802.9167
532.4  2833.3333
532.3  2917.0833
532.2  3018.75
532.1  3017.5
532  3122.0833
531.9  3219.1667
531.8  3273.3333
531.7  3455
531.6  3504.1667
531.5  3495.8333
531.4  3702.5
531.3  3823.75
531.2  3879.1667
531.1  3979.5833
531  4063.75
530.9  4060
530.8  4068.75
530.7  4060.4167
530.6  4056.25
530.5  3978.75
530.4  4002.9167
530.3  3880
530.2  3762.5
530.1  3602.0833
530  3461.25
529.9  3243.75
529.8  3219.1667
529.7  3049.5833
529.6  2881.6667
529.5  2786.25
529.4  2702.0833
529.3  2561.6667
529.2  2481.6667
529.1  2425.8333
529  2432.0833
528.9  2307.0833
528.8  2266.6667
528.7  2293.75
528.6  2210.4167
528.5  2162.0833
528.4  2195
528.3  2255
528.2  2241.25
528.1  2183.3333
528  2218.75
527.9  2202.0833
527.8  2151.6667
527.7  2194.1667
527.6  2249.5833
527.5  2272.9167
527.4  2260.8333
527.3  2229.1667
527.2  2286.25
527.1  2226.25
527  2305.4167

# Region:            Si2p
# Acquisition Date:  09/07/22 11:16:42 UTC
# Analysis Method:   XPS
# Analyzer:          Phoibos 100 R6
# Analyzer Lens:     LargeArea:1.5kV
# Analyzer Slit:     1:0.2x20\B:open
# Scan Mode:         FixedAnalyzerTransmission
# Curves/Scan:       1
# Values/Curve:      71
# Dwell Time:        0.8
# Excitation Energy: 1486.61
# Binding Energy:    107
# Pass Energy:       30
# Bias Voltage:      90
# Detector Voltage:  2600
# Eff. Workfunction: 4.309
# Source:            X-Ray Dummy
# Comment:           
#
# Cycle: 0
# Number of Scans: 2
#
# Cycle: 0, Curve: 0
# Acquisition Date: 09/07/22 11:16:42 UTC
#
# ColumnLabels: energy counts/s
#
107  1056.25
106.9  1053.125
106.8  1020
106.7  1010
106.6  990.625
106.5  966.875
106.4  941.875
106.3  936.25
106.2  868.125
106.1  890.625
106  826.875
105.9  789.375
105.8  782.5
105.7  786.875
105.6  748.125
105.5  738.125
105.4  651.875
105.3  651.875
105.2  735
105.1  708.75
105  696.25
104.9  674.375
104.8  665.625
104.7  688.125
104.6  676.875
104.5  684.375
104.4  678.75
104.3  663.125
104.2  645.625
104.1  670.625
104  688.75
103.9  668.125
103.8  626.875
103.7  685.625
103.6  662.5
103.5  663.125
103.4  637.5
103.3  661.25
103.2  683.75
103.1  656.25
103  653.125
102.9  655
102.8  623.125
102.7  668.75
102.6  631.25
102.5  650.625
102.4  688.75
102.3  643.75
102.2  636.25
102.1  659.375
102  604.375
101.9  693.75
101.8  627.5
101.7  624.375
101.6  654.375
101.5  633.75
101.4  648.75
101.3  653.125
101.2  646.875
101.1  658.75
101  651.25
100.9  625.625
100.8  630
100.7  653.75
100.6  626.25
100.5  606.875
100.4  613.125
100.3  631.25
100.2  652.5
100.1  630
100  610.625

# Region:            N1s
# Acquisition Date:  09/07/22 11:23:31 UTC
# Analysis Method:   XPS
# Analyzer:          Phoibos 100 R6
# Analyzer Lens:     LargeArea:1.5kV
# Analyzer Slit:     1:0.2x20\B:open
# Scan Mode:         FixedAnalyzerTransmission
# Curves/Scan:       1
# Values/Curve:      121
# Dwell Time:        0.8
# Excitation Energy: 1486.61
# Binding Energy:    409
# Pass Energy:       30
# Bias Voltage:      90
# Detector Voltage:  2600
# Eff. Workfunction: 4.309
# Source:            X-Ray Dummy
# Comment:           
#
# Cycle: 0
# Number of Scans: 3
#
# Cycle: 0, Curve: 0
# Acquisition Date: 09/07/22 11:23:31 UTC
#
# ColumnLabels: energy counts/s
#
409  771.25
408.9  722.91667
408.8  776.66667
408.7  771.25
408.6  777.91667
408.5  766.25
408.4  762.5
408.3  783.33333
408.2  756.25
408.1  807.5
408  727.08333
407.9  773.75
407.8  747.91667
407.7  766.66667
407.6  755.83333
407.5  766.66667
407.4  802.91667
407.3  772.5
407.2  757.08333
407.1  782.91667
407  769.58333
406.9  790.41667
406.8  759.58333
406.7  773.33333
406.6  767.91667
406.5  789.58333
406.4  795.83333
406.3  748.33333
406.2  745.83333
406.1  773.75
406  773.33333
405.9  777.91667
405.8  747.08333
405.7  802.5
405.6  751.66667
405.5  802.5
405.4  789.16667
405.3  748.75
405.2  767.91667
405.1  803.75
405  777.08333
404.9  767.91667
404.8  816.25
404.7  787.91667
404.6  720.83333
404.5  803.33333
404.4  766.66667
404.3  752.91667
404.2  738.33333
404.1  786.66667
404  776.66667
403.9  754.58333
403.8  768.75
403.7  800
403.6  782.5
403.5  778.75
403.4  754.16667
403.3  804.58333
403.2  781.25
403.1  756.25
403  779.58333
402.9  770
402.8  751.66667
402.7  751.25
402.6  779.58333
402.5  779.58333
402.4  767.5
402.3  764.58333
402.2  769.16667
402.1  775.83333
402  759.58333
401.9  791.25
401.8  763.75
401.7  744.58333
401.6  786.66667
401.5  785
401.4  776.25
401.3  767.08333
401.2  759.16667
401.1  768.33333
401  790
400.9  747.91667
400.8  772.91667
400.7  764.58333
400.6  748.33333
400.5  779.16667
400.4  769.16667
400.3  760
400.2  773.75
400.1  792.91667
400  791.66667
399.9  806.25
399.8  766.25
399.7  796.66667
399.6  797.5
399.5  778.75
399.4  802.91667
399.3  785
399.2  757.08333
399.1  788.33333
399  793.33333
398.9  775.41667
398.8  751.66667
398.7  795
398.6  777.91667
398.5  745
398.4  790.41667
398.3  734.16667
398.2  759.16667
398.1  749.58333
398  873.33333
397.9  785.83333
397.8  817.5
397.7  783.33333
397.6  775.41667
397.5  755
397.4  767.08333
397.3  776.25
397.2  776.25
397.1  779.16667
397  767.91667

