# Created by:        SpecsLab Prodigy, Version 4.60.2-r85849 
#
# XY-Serializer Export Settings:
#   Comment Prefix:           #
#   Output meta data:         yes
#   Energy Axis:              Binding Energy
#   Count Rate:               Counts per Second
#   Separate Scan Data:       no
#   Separate Channel Data:    no
#   External Channel Data:    yes
#   Transmission Function:    no
#   ErrorBar:                 no
#   Operation Results:        yes
#   Time Zone Format:         UTC
#
# Group:             Spectrum Group
#
# Region:            C1s
# Acquisition Date:  08/23/22 15:01:02 UTC
# Analysis Method:   XPS
# Analyzer:          Phoibos 100 R6
# Analyzer Lens:     LargeArea:1.5kV
# Analyzer Slit:     1:0.2x20\B:open
# Scan Mode:         FixedAnalyzerTransmission
# Curves/Scan:       1
# Values/Curve:      151
# Dwell Time:        0.8
# Excitation Energy: 1486.61
# Binding Energy:    295
# Pass Energy:       30
# Bias Voltage:      90
# Detector Voltage:  2600
# Eff. Workfunction: 4.309
# Source:            X-Ray Dummy
# Comment:           
#
# Cycle: 0
# Number of Scans: 1
#
# Cycle: 0, Curve: 0
# Acquisition Date: 08/23/22 15:01:02 UTC
#
# ColumnLabels: energy counts/s
#
295  983.75
294.9  922.5
294.8  1018.75
294.7  980
294.6  983.75
294.5  1033.75
294.4  933.75
294.3  988.75
294.2  977.5
294.1  1071.25
294  1035
293.9  1012.5
293.8  995
293.7  1012.5
293.6  980
293.5  1003.75
293.4  971.25
293.3  993.75
293.2  991.25
293.1  965
293  988.75
292.9  965
292.8  953.75
292.7  942.5
292.6  988.75
292.5  953.75
292.4  997.5
292.3  970
292.2  998.75
292.1  991.25
292  998.75
291.9  950
291.8  1000
291.7  930
291.6  986.25
291.5  998.75
291.4  947.5
291.3  1011.25
291.2  946.25
291.1  1027.5
291  987.5
290.9  1015
290.8  991.25
290.7  1016.25
290.6  998.75
290.5  1003.75
290.4  1015
290.3  966.25
290.2  913.75
290.1  1045
290  921.25
289.9  953.75
289.8  942.5
289.7  923.75
289.6  988.75
289.5  1005
289.4  922.5
289.3  973.75
289.2  1028.75
289.1  988.75
289  982.5
288.9  1016.25
288.8  992.5
288.7  1036.25
288.6  926.25
288.5  1016.25
288.4  1042.5
288.3  972.5
288.2  1018.75
288.1  948.75
288  1020
287.9  1033.75
287.8  945
287.7  1023.75
287.6  986.25
287.5  1000
287.4  982.5
287.3  983.75
287.2  971.25
287.1  1033.75
287  950
286.9  983.75
286.8  951.25
286.7  985
286.6  1033.75
286.5  963.75
286.4  1008.75
286.3  1013.75
286.2  961.25
286.1  991.25
286  991.25
285.9  1008.75
285.8  967.5
285.7  987.5
285.6  952.5
285.5  958.75
285.4  922.5
285.3  1022.5
285.2  1056.25
285.1  966.25
285  981.25
284.9  950
284.8  1033.75
284.7  973.75
284.6  952.5
284.5  973.75
284.4  968.75
284.3  1013.75
284.2  971.25
284.1  1005
284  953.75
283.9  1003.75
283.8  1008.75
283.7  1105
283.6  961.25
283.5  981.25
283.4  1002.5
283.3  1070
283.2  982.5
283.1  1007.5
283  1001.25
282.9  963.75
282.8  1012.5
282.7  1006.25
282.6  1005
282.5  975
282.4  1052.5
282.3  931.25
282.2  995
282.1  976.25
282  953.75
281.9  1008.75
281.8  986.25
281.7  978.75
281.6  895
281.5  1001.25
281.4  987.5
281.3  1006.25
281.2  953.75
281.1  1035
281  1022.5
280.9  993.75
280.8  971.25
280.7  916.25
280.6  1026.25
280.5  993.75
280.4  1017.5
280.3  1028.75
280.2  1045
280.1  951.25
280  965

# Region:            overview
# Acquisition Date:  08/23/22 15:05:31 UTC
# Analysis Method:   XPS
# Analyzer:          Phoibos 100 R6
# Analyzer Lens:     MediumArea:1.5kV
# Analyzer Slit:     1:0.2x20\B:open
# Scan Mode:         FixedAnalyzerTransmission
# Curves/Scan:       1
# Values/Curve:      1205
# Dwell Time:        0.2
# Excitation Energy: 1486.61
# Binding Energy:    1200
# Pass Energy:       50
# Bias Voltage:      90
# Detector Voltage:  2600
# Eff. Workfunction: 4.309
# Source:            X-Ray Dummy
# Comment:           
#
# Cycle: 0
# Number of Scans: 1
#
# Cycle: 0, Curve: 0
# Acquisition Date: 08/23/22 15:05:31 UTC
#
# ColumnLabels: energy counts/s
#
1200  10345
1199  10995
1198  10785
1197  10435
1196  10695
1195  10870
1194  10995
1193  11265
1192  10875
1191  10830
1190  10335
1189  10385
1188  11010
1187  10220
1186  10315
1185  9970
1184  10070
1183  9760
1182  10100
1181  9745
1180  9650
1179  9715
1178  9385
1177  9365
1176  9530
1175  9740
1174  9700
1173  9905
1172  9715
1171  9965
1170  9715
1169  9740
1168  9825
1167  9255
1166  9590
1165  9940
1164  9505
1163  9815
1162  10300
1161  9705
1160  9720
1159  9695
1158  10175
1157  9725
1156  9950
1155  9815
1154  9740
1153  9880
1152  9710
1151  9865
1150  10015
1149  9380
1148  9365
1147  9455
1146  9675
1145  9110
1144  9285
1143  9105
1142  9160
1141  9120
1140  8575
1139  8585
1138  8520
1137  8435
1136  8360
1135  8235
1134  8145
1133  7810
1132  7885
1131  7670
1130  7950
1129  7490
1128  7610
1127  8010
1126  7575
1125  7920
1124  7700
1123  7445
1122  7290
1121  8025
1120  7575
1119  7400
1118  7230
1117  7410
1116  7405
1115  7605
1114  7775
1113  7595
1112  7130
1111  7320
1110  7425
1109  7530
1108  7495
1107  7230
1106  7480
1105  7635
1104  7245
1103  7175
1102  7480
1101  7465
1100  7190
1099  7280
1098  7485
1097  7015
1096  7500
1095  7775
1094  7630
1093  7870
1092  8095
1091  8475
1090  9020
1089  9205
1088  10455
1087  11270
1086  11095
1085  10485
1084  9680
1083  9075
1082  8660
1081  9120
1080  9390
1079  9065
1078  7975
1077  6955
1076  6775
1075  5805
1074  5775
1073  5810
1072  5920
1071  5665
1070  5740
1069  5530
1068  5605
1067  5605
1066  5570
1065  5600
1064  5515
1063  5575
1062  5670
1061  6085
1060  5335
1059  5365
1058  5640
1057  5180
1056  5330
1055  5065
1054  5205
1053  5105
1052  5160
1051  5060
1050  5010
1049  5235
1048  4815
1047  5045
1046  4785
1045  4790
1044  4550
1043  4745
1042  4940
1041  4985
1040  4910
1039  4585
1038  5045
1037  5010
1036  4615
1035  4860
1034  4840
1033  4985
1032  4815
1031  4715
1030  4740
1029  4725
1028  4770
1027  4785
1026  4715
1025  4900
1024  4885
1023  4805
1022  5085
1021  4940
1020  4780
1019  4735
1018  4750
1017  4705
1016  5100
1015  5110
1014  5080
1013  5145
1012  4800
1011  4710
1010  4895
1009  4730
1008  5230
1007  4995
1006  4750
1005  4820
1004  4920
1003  5225
1002  4905
1001  5075
1000  4890
999  4790
998  4975
997  5275
996  5150
995  5445
994  5175
993  5060
992  4735
991  5030
990  4880
989  4975
988  4765
987  4700
986  4925
985  5025
984  4765
983  4810
982  5085
981  4745
980  5040
979  4815
978  5225
977  5535
976  5665
975  6110
974  6100
973  5620
972  5385
971  5130
970  4755
969  4945
968  4780
967  4665
966  4625
965  4540
964  4270
963  4040
962  4350
961  4365
960  4345
959  4330
958  4145
957  4415
956  4120
955  4320
954  3950
953  4215
952  4160
951  4360
950  4090
949  3960
948  4055
947  4235
946  4360
945  4160
944  4115
943  4175
942  4010
941  4575
940  4045
939  3975
938  4425
937  4245
936  4010
935  4430
934  4265
933  4100
932  4025
931  4165
930  4355
929  3940
928  4385
927  4030
926  4490
925  4165
924  4230
923  4135
922  4140
921  4455
920  4305
919  4445
918  4325
917  3995
916  4180
915  4215
914  4280
913  4350
912  4360
911  4425
910  4275
909  4630
908  4360
907  4370
906  4340
905  4155
904  4440
903  4265
902  4310
901  4205
900  4535
899  4210
898  4530
897  4180
896  4335
895  4135
894  4315
893  4390
892  4205
891  4030
890  4120
889  4415
888  4280
887  4345
886  4070
885  4135
884  4355
883  4190
882  4195
881  4185
880  4355
879  4300
878  4455
877  4425
876  4510
875  4090
874  4400
873  4160
872  4095
871  4230
870  4405
869  4295
868  4445
867  4355
866  4465
865  4015
864  4295
863  4545
862  4375
861  4475
860  4490
859  4615
858  4435
857  4260
856  4420
855  4035
854  4185
853  4470
852  4525
851  4375
850  4405
849  4340
848  4565
847  4060
846  4575
845  4640
844  4440
843  4440
842  4585
841  4685
840  4195
839  4405
838  4430
837  4590
836  4545
835  4425
834  4375
833  4590
832  4630
831  4630
830  4775
829  4705
828  5050
827  4890
826  5005
825  4615
824  4630
823  4865
822  4470
821  4250
820  4205
819  4900
818  4420
817  4590
816  4370
815  4325
814  4345
813  4730
812  4335
811  4520
810  4480
809  4285
808  4185
807  4550
806  4200
805  4565
804  4370
803  4460
802  4710
801  4150
800  4295
799  4450
798  4305
797  4350
796  4400
795  4605
794  4395
793  4640
792  4520
791  4220
790  4440
789  4570
788  4405
787  4115
786  4430
785  4490
784  4280
783  4255
782  4615
781  4290
780  4700
779  4690
778  4195
777  4570
776  4585
775  4345
774  4690
773  4565
772  4630
771  4630
770  4555
769  4310
768  4210
767  4575
766  4525
765  4625
764  4430
763  4185
762  4315
761  4630
760  4620
759  4640
758  4940
757  4625
756  4770
755  4380
754  4665
753  4800
752  4460
751  4625
750  4280
749  4460
748  4710
747  4560
746  4435
745  4510
744  4755
743  4730
742  4715
741  4650
740  4775
739  4580
738  4340
737  4485
736  4755
735  4680
734  4585
733  4805
732  5030
731  4955
730  4505
729  4910
728  4630
727  4495
726  4700
725  4780
724  4910
723  4745
722  4950
721  4870
720  4960
719  4910
718  5000
717  5115
716  4835
715  5200
714  4865
713  5000
712  4780
711  4775
710  4945
709  4825
708  5075
707  5645
706  5670
705  6575
704  6805
703  6780
702  5945
701  5245
700  5065
699  5190
698  4875
697  4745
696  4855
695  4820
694  4610
693  4935
692  5045
691  4820
690  4895
689  4700
688  4605
687  4505
686  4670
685  5005
684  4835
683  4785
682  4650
681  4910
680  4825
679  4590
678  4585
677  4710
676  4725
675  4490
674  4640
673  4790
672  4800
671  4690
670  4920
669  5910
668  6540
667  7555
666  8345
665  8410
664  7350
663  6165
662  5315
661  4940
660  4515
659  4415
658  4280
657  4410
656  4610
655  4435
654  4400
653  4155
652  4025
651  4090
650  4035
649  4115
648  3970
647  3670
646  4140
645  3970
644  4005
643  3800
642  4005
641  3955
640  3820
639  3780
638  3990
637  4100
636  4035
635  3990
634  3910
633  3920
632  4000
631  4085
630  3725
629  3855
628  3900
627  3905
626  3885
625  4165
624  4090
623  4070
622  3785
621  3810
620  3885
619  4070
618  3950
617  4085
616  3865
615  4150
614  4050
613  4290
612  4255
611  3955
610  3985
609  4135
608  4130
607  4130
606  4370
605  3850
604  4190
603  4390
602  4075
601  4485
600  4230
599  4125
598  4375
597  4080
596  4195
595  4215
594  4105
593  4145
592  4055
591  4185
590  4030
589  4070
588  4390
587  4420
586  4100
585  4380
584  4250
583  4130
582  4245
581  4295
580  4500
579  4290
578  4300
577  4135
576  4355
575  4375
574  4575
573  4050
572  4165
571  4510
570  4385
569  4475
568  4280
567  4550
566  4400
565  4270
564  4420
563  4270
562  4255
561  4650
560  4495
559  4750
558  4405
557  4525
556  4425
555  4770
554  4380
553  4815
552  4630
551  4705
550  4745
549  4750
548  4670
547  4580
546  4670
545  4450
544  4540
543  4445
542  4320
541  4210
540  4145
539  4320
538  4395
537  4350
536  4240
535  4390
534  4320
533  4690
532  5900
531  7795
530  8700
529  7250
528  5270
527  4430
526  4300
525  4085
524  3935
523  3995
522  4115
521  4510
520  4425
519  4320
518  4410
517  4270
516  4180
515  4225
514  4010
513  4080
512  4140
511  4210
510  4370
509  3910
508  4260
507  4290
506  4200
505  4120
504  4090
503  4260
502  4285
501  4255
500  4245
499  4135
498  4290
497  4285
496  4895
495  5045
494  4595
493  4430
492  4225
491  4155
490  4285
489  4200
488  4830
487  5215
486  5420
485  4560
484  4055
483  4155
482  3965
481  4280
480  3925
479  4100
478  4535
477  4165
476  4390
475  4085
474  4260
473  4275
472  4490
471  4475
470  4310
469  4410
468  4695
467  4495
466  4500
465  4530
464  4255
463  4320
462  4095
461  4265
460  4150
459  4025
458  4035
457  4025
456  3830
455  4520
454  6475
453  11965
452  16250
451  11335
450  5305
449  3490
448  3640
447  5230
446  10815
445  18715
444  19295
443  9820
442  4695
441  2915
440  2665
439  2280
438  2025
437  2030
436  2370
435  2680
434  2840
433  2730
432  2060
431  1845
430  1635
429  1490
428  1445
427  1450
426  1450
425  1440
424  1405
423  1365
422  1535
421  1415
420  1410
419  1360
418  1390
417  1465
416  1400
415  1520
414  1430
413  1360
412  1400
411  1470
410  1360
409  1395
408  1560
407  1420
406  1630
405  1420
404  1475
403  1435
402  1360
401  1385
400  1495
399  1395
398  1485
397  1375
396  1365
395  1270
394  1420
393  1535
392  1415
391  1320
390  1150
389  1245
388  1440
387  1355
386  1475
385  1355
384  1595
383  1480
382  1635
381  1395
380  1610
379  1420
378  1300
377  1420
376  1505
375  1480
374  1450
373  1540
372  1295
371  1260
370  1250
369  1210
368  1345
367  1390
366  1220
365  1260
364  1380
363  1175
362  1280
361  1340
360  1230
359  1355
358  1295
357  1345
356  1300
355  1180
354  1390
353  1290
352  1330
351  1360
350  1365
349  1315
348  1190
347  1250
346  1340
345  1270
344  1265
343  1275
342  1245
341  1330
340  1180
339  1265
338  1195
337  1210
336  1370
335  1295
334  1260
333  1305
332  1275
331  1195
330  1305
329  1280
328  1275
327  1430
326  1260
325  1200
324  1240
323  1400
322  1325
321  1405
320  1490
319  1215
318  1440
317  1330
316  1245
315  1345
314  1390
313  1180
312  1315
311  1480
310  1190
309  1315
308  1320
307  1250
306  1445
305  1370
304  1415
303  1315
302  1345
301  1305
300  1525
299  1280
298  1320
297  1335
296  1345
295  1310
294  1295
293  1355
292  1285
291  1285
290  1240
289  1365
288  1465
287  1365
286  1150
285  1350
284  1305
283  1450
282  1340
281  1380
280  1320
279  1390
278  1285
277  1290
276  1395
275  1415
274  1430
273  1390
272  1455
271  1400
270  1280
269  1425
268  1380
267  1380
266  1390
265  1325
264  1290
263  1445
262  1255
261  1215
260  1305
259  1290
258  1435
257  1280
256  1275
255  1415
254  1280
253  1390
252  1465
251  1310
250  1420
249  1435
248  1515
247  1550
246  1395
245  1425
244  1565
243  1400
242  1645
241  1410
240  1435
239  1440
238  1470
237  1355
236  1265
235  1315
234  1325
233  1505
232  1360
231  1580
230  1390
229  1555
228  1345
227  1190
226  1385
225  1475
224  1360
223  1300
222  1325
221  1345
220  1520
219  1335
218  1375
217  1445
216  1320
215  1365
214  1440
213  1395
212  1345
211  1345
210  1445
209  1460
208  1320
207  1190
206  1390
205  1500
204  1380
203  1395
202  1435
201  1440
200  1600
199  1375
198  1440
197  1460
196  1515
195  1525
194  1560
193  1465
192  1660
191  1510
190  1510
189  1405
188  1350
187  1600
186  1565
185  1505
184  1210
183  1515
182  1435
181  1345
180  1530
179  1455
178  1400
177  1285
176  1415
175  1420
174  1520
173  1440
172  1595
171  1500
170  1450
169  1390
168  1590
167  1350
166  1405
165  1485
164  1250
163  1465
162  1545
161  1485
160  1505
159  1470
158  1395
157  1450
156  1620
155  1650
154  1555
153  1560
152  1535
151  1375
150  1435
149  1630
148  1525
147  1250
146  1695
145  1300
144  1390
143  1560
142  1470
141  1525
140  1540
139  1500
138  1630
137  1465
136  1480
135  1525
134  1590
133  1540
132  1500
131  1490
130  1470
129  1370
128  1650
127  1670
126  1580
125  1805
124  1830
123  1840
122  1725
121  1560
120  1415
119  1565
118  1580
117  1470
116  1380
115  1650
114  1535
113  1585
112  1410
111  1495
110  1475
109  1455
108  1545
107  1520
106  1445
105  1385
104  1630
103  1525
102  1455
101  1665
100  1685
99  1475
98  1680
97  1560
96  1550
95  1675
94  1585
93  1655
92  1575
91  1680
90  1460
89  1950
88  1755
87  1855
86  1790
85  1880
84  1845
83  1895
82  1725
81  1790
80  2025
79  1925
78  1650
77  1960
76  1525
75  1655
74  1670
73  1475
72  1595
71  1355
70  1420
69  1490
68  1275
67  1330
66  1170
65  1135
64  1155
63  1230
62  1155
61  1045
60  1055
59  1190
58  1255
57  1215
56  1135
55  1105
54  1185
53  1205
52  1170
51  1130
50  1210
49  1175
48  1195
47  1060
46  1110
45  1065
44  1055
43  1145
42  1000
41  1155
40  1230
39  1035
38  1200
37  1090
36  1035
35  1165
34  1275
33  1245
32  1160
31  1065
30  1120
29  1120
28  1120
27  1315
26  1330
25  1185
24  1065
23  1190
22  1495
21  1460
20  2180
19  3830
18  4460
17  3410
16  1695
15  1060
14  940
13  830
12  930
11  715
10  865
9  1020
8  1105
7  1090
6  1010
5  880
4  940
3  780
2  680
1  690
-2.2737368e-013  715
-1  710
-2  750
-3  660
-4  665

# Region:            In3d
# Acquisition Date:  08/23/22 15:16:39 UTC
# Analysis Method:   XPS
# Analyzer:          Phoibos 100 R6
# Analyzer Lens:     LargeArea:1.5kV
# Analyzer Slit:     1:0.2x20\B:open
# Scan Mode:         FixedAnalyzerTransmission
# Curves/Scan:       1
# Values/Curve:      231
# Dwell Time:        0.8
# Excitation Energy: 1486.61
# Binding Energy:    460
# Pass Energy:       30
# Bias Voltage:      90
# Detector Voltage:  2600
# Eff. Workfunction: 4.309
# Source:            X-Ray Dummy
# Comment:           
#
# Cycle: 0
# Number of Scans: 2
#
# Cycle: 0, Curve: 0
# Acquisition Date: 08/23/22 15:16:39 UTC
#
# ColumnLabels: energy counts/s
#
460  3240
459.9  3288.125
459.8  3276.25
459.7  3272.5
459.6  3198.125
459.5  3203.125
459.4  3228.125
459.3  3245.625
459.2  3181.25
459.1  3200
459  3225
458.9  3111.25
458.8  3161.875
458.7  3183.125
458.6  3193.75
458.5  3118.125
458.4  3176.875
458.3  3181.875
458.2  3094.375
458.1  3100.625
458  3131.25
457.9  3084.375
457.8  3085
457.7  3080.625
457.6  3155.625
457.5  3073.125
457.4  3046.875
457.3  3127.5
457.2  3015
457.1  3076.875
457  3061.875
456.9  3041.25
456.8  3156.25
456.7  3096.875
456.6  3160.625
456.5  3132.5
456.4  3202.5
456.3  3131.25
456.2  3175.625
456.1  3183.125
456  3236.875
455.9  3281.875
455.8  3321.875
455.7  3361.25
455.6  3336.25
455.5  3446.875
455.4  3463.125
455.3  3482.5
455.2  3493.75
455.1  3504.375
455  3756.25
454.9  3818.125
454.8  3870.625
454.7  3951.25
454.6  4162.5
454.5  4312.5
454.4  4404.375
454.3  4775
454.2  4969.375
454.1  5148.75
454  5516.25
453.9  5850
453.8  6161.875
453.7  6521.875
453.6  7015.625
453.5  7413.125
453.4  7826.875
453.3  8508.75
453.2  9090
453.1  9531.875
453  10324.375
452.9  10797.5
452.8  11589.375
452.7  11921.875
452.6  12571.25
452.5  12973.125
452.4  13333.75
452.3  13549.375
452.2  13722.5
452.1  13640
452  13417.5
451.9  13380.625
451.8  12843.125
451.7  12353.125
451.6  11883.75
451.5  11161.875
451.4  10517.5
451.3  9771.875
451.2  8987.5
451.1  8205.625
451  7563.125
450.9  6707.5
450.8  6198.125
450.7  5617.5
450.6  5040
450.5  4740
450.4  4263.75
450.3  3972.5
450.2  3707.5
450.1  3505
450  3200.625
449.9  3080.625
449.8  2967.5
449.7  2888.125
449.6  2771.875
449.5  2745.625
449.4  2742.5
449.3  2658.125
449.2  2687.5
449.1  2572.5
449  2554.375
448.9  2636.25
448.8  2528.75
448.7  2645
448.6  2607.5
448.5  2668.75
448.4  2730.625
448.3  2723.125
448.2  2786.25
448.1  2858.75
448  2940
447.9  2856.875
447.8  3031.875
447.7  3049.375
447.6  3281.875
447.5  3289.375
447.4  3429.375
447.3  3650
447.2  3778.125
447.1  4078.125
447  4285.625
446.9  4555
446.8  4720
446.7  5054.375
446.6  5511.25
446.5  5843.75
446.4  6160.625
446.3  6978.125
446.2  7331.875
446.1  7974.375
446  8768.125
445.9  9455
445.8  10316.25
445.7  11018.125
445.6  11920
445.5  12742.5
445.4  13606.875
445.3  14464.375
445.2  15082.5
445.1  16248.125
445  16581.875
444.9  17586.25
444.8  17663.75
444.7  18238.125
444.6  18246.875
444.5  18173.75
444.4  17959.375
444.3  17559.375
444.2  16854.375
444.1  16018.125
444  14985.625
443.9  14213.75
443.8  13131.875
443.7  12168.75
443.6  11193.75
443.5  10028.125
443.4  9129.375
443.3  8285
443.2  7460
443.1  6688.75
443  5933.75
442.9  5535.625
442.8  4945.625
442.7  4662.5
442.6  4380.625
442.5  3952.5
442.4  3867.5
442.3  3704.375
442.2  3523.125
442.1  3332.5
442  3194.375
441.9  3096.875
441.8  3026.25
441.7  2933.125
441.6  2811.875
441.5  2742.5
441.4  2610
441.3  2584.375
441.2  2590
441.1  2486.25
441  2505.625
440.9  2343.125
440.8  2344.375
440.7  2286.875
440.6  2226.875
440.5  2144.375
440.4  2161.875
440.3  2146.25
440.2  2110.625
440.1  2041.25
440  2087.5
439.9  2077.5
439.8  1960
439.7  1948.125
439.6  1888.125
439.5  1869.375
439.4  1795
439.3  1798.75
439.2  1812.5
439.1  1830.625
439  1723.125
438.9  1742.5
438.8  1751.875
438.7  1686.875
438.6  1606.25
438.5  1518.75
438.4  1566.875
438.3  1565.625
438.2  1605
438.1  1608.125
438  1550
437.9  1534.375
437.8  1610.625
437.7  1554.375
437.6  1585.625
437.5  1555
437.4  1521.875
437.3  1555.625
437.2  1530
437.1  1565.625
437  1588.125

# Region:            Sn3d
# Acquisition Date:  08/23/22 15:19:46 UTC
# Analysis Method:   XPS
# Analyzer:          Phoibos 100 R6
# Analyzer Lens:     LargeArea:1.5kV
# Analyzer Slit:     1:0.2x20\B:open
# Scan Mode:         FixedAnalyzerTransmission
# Curves/Scan:       1
# Values/Curve:      231
# Dwell Time:        0.8
# Excitation Energy: 1486.61
# Binding Energy:    503
# Pass Energy:       30
# Bias Voltage:      90
# Detector Voltage:  2600
# Eff. Workfunction: 4.309
# Source:            X-Ray Dummy
# Comment:           
#
# Cycle: 0
# Number of Scans: 2
#
# Cycle: 0, Curve: 0
# Acquisition Date: 08/23/22 15:19:46 UTC
#
# ColumnLabels: energy counts/s
#
503  3618.125
502.9  3571.875
502.8  3495.625
502.7  3515
502.6  3666.25
502.5  3543.75
502.4  3556.875
502.3  3585
502.2  3548.75
502.1  3591.25
502  3613.125
501.9  3606.25
501.8  3587.5
501.7  3559.375
501.6  3581.25
501.5  3624.375
501.4  3590.625
501.3  3575.625
501.2  3540.625
501.1  3608.125
501  3589.375
500.9  3556.25
500.8  3584.375
500.7  3580.625
500.6  3589.375
500.5  3573.125
500.4  3555.625
500.3  3524.375
500.2  3604.375
500.1  3580
500  3446.25
499.9  3556.875
499.8  3518.125
499.7  3462.5
499.6  3568.125
499.5  3534.375
499.4  3633.75
499.3  3540.625
499.2  3538.125
499.1  3595
499  3608.75
498.9  3531.875
498.8  3610.625
498.7  3482.5
498.6  3547.5
498.5  3663.125
498.4  3529.375
498.3  3491.875
498.2  3676.25
498.1  3635
498  3639.375
497.9  3575.625
497.8  3658.75
497.7  3596.25
497.6  3657.5
497.5  3665.625
497.4  3651.25
497.3  3666.875
497.2  3672.5
497.1  3788.125
497  3825
496.9  3880
496.8  3838.75
496.7  3810.625
496.6  3794.375
496.5  3905.625
496.4  4008.75
496.3  4009.375
496.2  4094.375
496.1  4043.75
496  4206.25
495.9  4096.875
495.8  4185
495.7  4294.375
495.6  4186.875
495.5  4180
495.4  4378.75
495.3  4364.375
495.2  4347.5
495.1  4377.5
495  4225
494.9  4238.125
494.8  4276.25
494.7  4330.625
494.6  4270
494.5  4200
494.4  4117.5
494.3  4073.75
494.2  4074.375
494.1  4024.375
494  3845.625
493.9  3790.625
493.8  3815.625
493.7  3772.5
493.6  3665.625
493.5  3550
493.4  3626.25
493.3  3604.375
493.2  3608.75
493.1  3522.5
493  3605
492.9  3558.75
492.8  3555
492.7  3460
492.6  3483.75
492.5  3518.125
492.4  3468.125
492.3  3466.875
492.2  3446.875
492.1  3531.25
492  3470
491.9  3515.625
491.8  3476.875
491.7  3476.25
491.6  3442.5
491.5  3434.375
491.4  3384.375
491.3  3520
491.2  3473.75
491.1  3359.375
491  3461.25
490.9  3481.25
490.8  3411.875
490.7  3412.5
490.6  3465
490.5  3443.75
490.4  3455.625
490.3  3421.25
490.2  3479.375
490.1  3330.625
490  3466.875
489.9  3510
489.8  3543.125
489.7  3498.125
489.6  3556.875
489.5  3486.875
489.4  3635.625
489.3  3568.125
489.2  3595.625
489.1  3566.25
489  3632.5
488.9  3649.375
488.8  3705.625
488.7  3721.875
488.6  3733.75
488.5  3799.375
488.4  3798.75
488.3  3870
488.2  3957.5
488.1  3968.75
488  4040.625
487.9  4221.875
487.8  4244.375
487.7  4212.5
487.6  4261.875
487.5  4295
487.4  4466.25
487.3  4508.75
487.2  4453.75
487.1  4639.375
487  4611.875
486.9  4691.875
486.8  4641.25
486.7  4720
486.6  4601.25
486.5  4721.25
486.4  4636.25
486.3  4566.25
486.2  4538.125
486.1  4444.375
486  4473.125
485.9  4382.5
485.8  4280
485.7  4201.25
485.6  4080
485.5  4058.75
485.4  3916.875
485.3  3851.25
485.2  3678.125
485.1  3710
485  3776.25
484.9  3613.75
484.8  3543.125
484.7  3615
484.6  3552.5
484.5  3555.625
484.4  3594.375
484.3  3542.5
484.2  3517.5
484.1  3588.75
484  3466.875
483.9  3381.875
483.8  3536.875
483.7  3533.75
483.6  3490.625
483.5  3453.75
483.4  3568.75
483.3  3379.375
483.2  3364.375
483.1  3404.375
483  3449.375
482.9  3450.625
482.8  3432.5
482.7  3498.75
482.6  3466.25
482.5  3412.5
482.4  3494.375
482.3  3448.125
482.2  3481.875
482.1  3448.75
482  3437.5
481.9  3398.125
481.8  3439.375
481.7  3482.5
481.6  3455.625
481.5  3416.25
481.4  3370
481.3  3345
481.2  3427.5
481.1  3373.125
481  3436.875
480.9  3481.875
480.8  3296.875
480.7  3459.375
480.6  3443.125
480.5  3483.75
480.4  3345.625
480.3  3402.5
480.2  3371.25
480.1  3420
480  3420

# Region:            O1s
# Acquisition Date:  08/23/22 15:36:21 UTC
# Analysis Method:   XPS
# Analyzer:          Phoibos 100 R6
# Analyzer Lens:     LargeArea:1.5kV
# Analyzer Slit:     1:0.2x20\B:open
# Scan Mode:         FixedAnalyzerTransmission
# Curves/Scan:       1
# Values/Curve:      111
# Dwell Time:        0.8
# Excitation Energy: 1486.61
# Binding Energy:    538
# Pass Energy:       30
# Bias Voltage:      90
# Detector Voltage:  2600
# Eff. Workfunction: 4.309
# Source:            X-Ray Dummy
# Comment:           
#
# Cycle: 0
# Number of Scans: 12
#
# Cycle: 0, Curve: 0
# Acquisition Date: 08/23/22 15:36:21 UTC
#
# ColumnLabels: energy counts/s
#
538  3810.2083
537.9  3818.8542
537.8  3823.125
537.7  3792.1875
537.6  3792.3958
537.5  3767.8125
537.4  3759.0625
537.3  3791.1458
537.2  3787.8125
537.1  3793.8542
537  3786.6667
536.9  3800.7292
536.8  3784.0625
536.7  3765.2083
536.6  3784.7917
536.5  3778.4375
536.4  3760.7292
536.3  3756.9792
536.2  3818.5417
536.1  3783.8542
536  3728.75
535.9  3774.2708
535.8  3817.3958
535.7  3758.8542
535.6  3773.125
535.5  3786.875
535.4  3780.7292
535.3  3793.75
535.2  3772.9167
535.1  3782.8125
535  3766.6667
534.9  3780.9375
534.8  3800
534.7  3832.2917
534.6  3805.1042
534.5  3851.7708
534.4  3862.2917
534.3  3909.375
534.2  3876.875
534.1  3925.625
534  3922.8125
533.9  4029.8958
533.8  4041.4583
533.7  4047.9167
533.6  4055.5208
533.5  4142.7083
533.4  4233.75
533.3  4283.5417
533.2  4343.3333
533.1  4406.1458
533  4467.7083
532.9  4546.3542
532.8  4670.4167
532.7  4725.625
532.6  4776.875
532.5  4874.8958
532.4  5030.9375
532.3  5105.625
532.2  5221.4583
532.1  5388.0208
532  5466.875
531.9  5607.6042
531.8  5783.5417
531.7  5857.0833
531.6  6060
531.5  6222.7083
531.4  6359.4792
531.3  6585.8333
531.2  6739.5833
531.1  6918.6458
531  7103.2292
530.9  7248.8542
530.8  7436.5625
530.7  7566.7708
530.6  7737.1875
530.5  7806.25
530.4  7817.0833
530.3  7891.1458
530.2  7894.5833
530.1  7876.0417
530  7756.25
529.9  7680.5208
529.8  7536.25
529.7  7343.0208
529.6  7103.6458
529.5  6845.625
529.4  6594.5833
529.3  6403.0208
529.2  6133.8542
529.1  5850.7292
529  5562.0833
528.9  5340.8333
528.8  5122.6042
528.7  4887.7083
528.6  4689.375
528.5  4510.3125
528.4  4366.0417
528.3  4263.4375
528.2  4176.5625
528.1  4043.2292
528  3992.5
527.9  3903.9583
527.8  3858.75
527.7  3845.3125
527.6  3791.0417
527.5  3783.4375
527.4  3735.1042
527.3  3733.9583
527.2  3685.2083
527.1  3715.3125
527  3722.3958

# Operation:         O1s
# Parameter: "Transition" = O1s
# Parameter: "Label" = 
# Parameter: "Background Method" = Tougaard
# Parameter: "Peak Shape" = Voigt
# Parameter: "Asymmetric Peak" = false
# Parameter: "FWHM-Annotation" = S-B = <Signal-BG:@>\nFWHM = <FWHM:@>\nArea = <Area:@>
# Parameter: "Peak-Annotation" = <Label>\n<Transition>\nE = <Center:@>
#
# Result:
# Number of Results: 2
# Parameter: "Transition" = O1s
# Parameter: "Label" = 
# Parameter: "Center" = 530.38351963246623 eV +- 0.002396877094042793
# Parameter: "Area" = 26731.589542421476 cps eV +- 159.38782920548874
# Parameter: "FWHM Lorentzian" = 3.2109003618724064 eV +- 0.014309295994166499
# Parameter: "FWHM Gaussian" = 0 eV +- 0
# Parameter: "Asymmetry" = 0 +- 0
# Parameter: "Tougaard B" = 20346.331455944986 eV^2 +- 171.54451573503394
# Parameter: "Tougaard C" = 1643 eV^2 +- 0
# Parameter: "FWHM" = 3.2109003618724064 eV
# Parameter: "Offset (0th order)" = 2524.8420599031519 cps +- 14.442191299524893
# Parameter: "Abbe factor" = 0.054904852763865288
# Parameter: "Reduced Chi Square" = 28.328360653669204
# Parameter: "Q Probability" = 0
# Parameter: "Number of performed iterations" = 21
# Parameter: "Fit termination reason" = ConvergedInParameter
# Parameter: "Signal" = 7913.9825711273706 cps
# Parameter: "Signal-BG" = 5300.026949324636 cps
#
# Result Name:       Background
# Number of Curves:  1
#
# Curve:             0
# Values/Curve:      70
#
538  3678.6664
537.84058  3652.6815
537.68116  3626.7687
537.52174  3600.9286
537.36232  3575.162
537.2029  3549.4699
537.04348  3523.8534
536.88406  3498.3138
536.72464  3472.8526
536.56522  3447.4717
536.4058  3422.1729
536.24638  3396.9586
536.08696  3371.8313
535.92754  3346.7937
535.76812  3321.8491
535.6087  3297.001
535.44928  3272.2532
535.28986  3247.6101
535.13043  3223.0765
534.97101  3198.6577
534.81159  3174.3596
534.65217  3150.1888
534.49275  3126.1526
534.33333  3102.2589
534.17391  3078.5168
534.01449  3054.9361
533.85507  3031.5281
533.69565  3008.3051
533.53623  2985.2808
533.37681  2962.4709
533.21739  2939.8927
533.05797  2917.5656
532.89855  2895.5115
532.73913  2873.7552
532.57971  2852.3243
532.42029  2831.2502
532.26087  2810.568
532.10145  2790.3174
531.94203  2770.5424
531.78261  2751.2923
531.62319  2732.6211
531.46377  2714.5877
531.30435  2697.2547
531.14493  2680.6871
530.98551  2664.9495
530.82609  2650.1031
530.66667  2636.2011
530.50725  2623.2846
530.34783  2611.3781
530.18841  2600.487
530.02899  2590.5968
529.86957  2581.6751
529.71014  2573.6747
529.55072  2566.538
529.3913  2560.2015
529.23188  2554.5999
529.07246  2549.6688
528.91304  2545.3469
528.75362  2541.5773
528.5942  2538.3077
528.43478  2535.4909
528.27536  2533.0847
528.11594  2531.0512
527.95652  2529.3567
527.7971  2527.9713
527.63768  2526.8682
527.47826  2526.0238
527.31884  2525.4169
527.15942  2525.0286
527  2524.8421

# Result Name:       Peak Fit
# Number of Curves:  1
#
# Curve:             0
# Values/Curve:      70
#
538  3904.1336
537.84058  3887.4604
537.68116  3871.4386
537.52174  3856.1171
537.36232  3841.5498
537.2029  3827.7966
537.04348  3814.9237
536.88406  3803.0048
536.72464  3792.1221
536.56522  3782.3669
536.4058  3773.8413
536.24638  3766.6596
536.08696  3760.9501
535.92754  3756.8565
535.76812  3754.5409
535.6087  3754.1861
535.44928  3755.9988
535.28986  3760.213
535.13043  3767.0946
534.97101  3776.946
534.81159  3790.1121
534.65217  3806.9868
534.49275  3828.0212
534.33333  3853.7325
534.17391  3884.7146
534.01449  3921.6504
533.85507  3965.3255
533.69565  4016.6437
533.53623  4076.6439
533.37681  4146.5175
533.21739  4227.6262
533.05797  4321.5159
532.89855  4429.9257
532.73913  4554.7834
532.57971  4698.1793
532.42029  4862.3026
532.26087  5049.3187
532.10145  5261.1572
531.94203  5499.1703
531.78261  5763.6189
531.62319  6052.9506
531.46377  6362.8721
531.30435  6685.3094
531.14493  7007.4984
530.98551  7311.6554
530.82609  7575.8176
530.66667  7776.3439
530.50725  7892.0191
530.34783  7908.7866
530.18841  7823.3716
530.02899  7644.1778
529.86957  7389.0261
529.71014  7080.7996
529.55072  6742.8106
529.3913  6395.3531
529.23188  6053.9826
529.07246  5729.275
528.91304  5427.4827
528.75362  5151.5461
528.5942  4902.102
528.43478  4678.3243
528.27536  4478.5498
528.11594  4300.7095
527.95652  4142.6069
527.7971  4002.0857
527.63768  3877.123
527.47826  3765.8735
527.31884  3666.6844
527.15942  3578.0937
527  3498.8174

