# Created by:        SpecsLab Prodigy, Version 4.60.2-r85849 
#
# XY-Serializer Export Settings:
#   Comment Prefix:           #
#   Output meta data:         yes
#   Energy Axis:              Binding Energy
#   Count Rate:               Counts per Second
#   Separate Scan Data:       no
#   Separate Channel Data:    no
#   External Channel Data:    yes
#   Transmission Function:    no
#   ErrorBar:                 no
#   Operation Results:        yes
#   Time Zone Format:         UTC
#
# Group:             Spectrum Group
#
# Region:            C1s
# Acquisition Date:  08/26/22 13:58:22 UTC
# Analysis Method:   XPS
# Analyzer:          Phoibos 100 R6
# Analyzer Lens:     LargeArea:1.5kV
# Analyzer Slit:     1:0.2x20\B:open
# Scan Mode:         FixedAnalyzerTransmission
# Curves/Scan:       1
# Values/Curve:      151
# Dwell Time:        0.8
# Excitation Energy: 1486.61
# Binding Energy:    295
# Pass Energy:       30
# Bias Voltage:      90
# Detector Voltage:  2600
# Eff. Workfunction: 4.309
# Source:            X-Ray Dummy
# Comment:           
#
# Cycle: 0
# Number of Scans: 29
#
# Cycle: 0, Curve: 0
# Acquisition Date: 08/26/22 13:58:22 UTC
#
# ColumnLabels: energy counts/s
#
295  1066.8103
294.9  1080.6466
294.8  1071.1638
294.7  1074.3103
294.6  1059.4397
294.5  1084.0517
294.4  1068.9224
294.3  1078.1897
294.2  1070.0862
294.1  1075.7328
294  1084.8707
293.9  1070.5603
293.8  1059.3103
293.7  1078.8793
293.6  1075.8621
293.5  1069.6983
293.4  1069.8276
293.3  1081.0776
293.2  1056.4224
293.1  1070.1724
293  1068.8793
292.9  1067.4569
292.8  1069.2241
292.7  1067.7586
292.6  1059.9138
292.5  1067.8448
292.4  1061.2069
292.3  1068.1897
292.2  1070.9914
292.1  1062.5
292  1090.6897
291.9  1072.2414
291.8  1085.431
291.7  1067.8879
291.6  1065.9483
291.5  1077.4138
291.4  1079.6552
291.3  1078.3621
291.2  1077.3707
291.1  1070.7328
291  1077.9741
290.9  1084.9138
290.8  1071.8966
290.7  1076.25
290.6  1086.6379
290.5  1083.6207
290.4  1067.6724
290.3  1078.4483
290.2  1074.0517
290.1  1080.8621
290  1091.7672
289.9  1093.4483
289.8  1096.3362
289.7  1091.4655
289.6  1103.1897
289.5  1092.5862
289.4  1103.5345
289.3  1099.3103
289.2  1108.2328
289.1  1114.5259
289  1113.5776
288.9  1130.5603
288.8  1118.7931
288.7  1125.3017
288.6  1127.6293
288.5  1136.1207
288.4  1128.9655
288.3  1131.1638
288.2  1144.2672
288.1  1144.4828
288  1153.6207
287.9  1162.3276
287.8  1172.4569
287.7  1165.1724
287.6  1177.2414
287.5  1179.6983
287.4  1180.1724
287.3  1179.9569
287.2  1194.8707
287.1  1196.7241
287  1186.1638
286.9  1184.8707
286.8  1173.8362
286.7  1188.4483
286.6  1194.6983
286.5  1192.7586
286.4  1181.9397
286.3  1190
286.2  1182.3707
286.1  1184.6552
286  1194.9138
285.9  1177.0259
285.8  1169.8707
285.7  1167.5431
285.6  1150.5172
285.5  1149.2672
285.4  1155.7328
285.3  1162.1121
285.2  1143.4052
285.1  1137.8448
285  1124.6552
284.9  1125.1293
284.8  1116.25
284.7  1123.9224
284.6  1111.5086
284.5  1111.4224
284.4  1094.9138
284.3  1085.0431
284.2  1087.0259
284.1  1070.5603
284  1075.1724
283.9  1084.4828
283.8  1068.3621
283.7  1063.2759
283.6  1072.7155
283.5  1060.6034
283.4  1079.3103
283.3  1064.8707
283.2  1074.3534
283.1  1062.8879
283  1055.1293
282.9  1063.3621
282.8  1051.9397
282.7  1050.4741
282.6  1057.2845
282.5  1057.5
282.4  1054.3534
282.3  1057.5862
282.2  1055.9052
282.1  1057.5
282  1065.1724
281.9  1063.9655
281.8  1051.4655
281.7  1047.4569
281.6  1061.1207
281.5  1055.9483
281.4  1045
281.3  1066.2069
281.2  1055.6466
281.1  1055.9052
281  1045.431
280.9  1055.6466
280.8  1040.6466
280.7  1046.3362
280.6  1052.7155
280.5  1046.8534
280.4  1052.3707
280.3  1048.8793
280.2  1049.7414
280.1  1050.819
280  1062.0259

# Region:            overview
# Acquisition Date:  08/26/22 08:11:53 UTC
# Analysis Method:   XPS
# Analyzer:          Phoibos 100 R6
# Analyzer Lens:     MediumArea:1.5kV
# Analyzer Slit:     1:0.2x20\B:open
# Scan Mode:         FixedAnalyzerTransmission
# Curves/Scan:       1
# Values/Curve:      1205
# Dwell Time:        0.2
# Excitation Energy: 1486.61
# Binding Energy:    1200
# Pass Energy:       50
# Bias Voltage:      90
# Detector Voltage:  2600
# Eff. Workfunction: 4.309
# Source:            X-Ray Dummy
# Comment:           
#
# Cycle: 0
# Number of Scans: 1
#
# Cycle: 0, Curve: 0
# Acquisition Date: 08/26/22 08:11:53 UTC
#
# ColumnLabels: energy counts/s
#
1200  9115
1199  8885
1198  9090
1197  8630
1196  8740
1195  8660
1194  8990
1193  9055
1192  9010
1191  8875
1190  8770
1189  8655
1188  8750
1187  8650
1186  8235
1185  9235
1184  8675
1183  8550
1182  8150
1181  8235
1180  8070
1179  8320
1178  8650
1177  8340
1176  8165
1175  8395
1174  8515
1173  8190
1172  8135
1171  8560
1170  8315
1169  8095
1168  8255
1167  8005
1166  7935
1165  8110
1164  8060
1163  8230
1162  7880
1161  8195
1160  7840
1159  8400
1158  7835
1157  8100
1156  7825
1155  8035
1154  8025
1153  7750
1152  7955
1151  7475
1150  7905
1149  7950
1148  7755
1147  8080
1146  7870
1145  7865
1144  7610
1143  7690
1142  7490
1141  7815
1140  7675
1139  7690
1138  7955
1137  8030
1136  8105
1135  7445
1134  7205
1133  7260
1132  7260
1131  7325
1130  7535
1129  7190
1128  7250
1127  7240
1126  7440
1125  7175
1124  7165
1123  7040
1122  7155
1121  7205
1120  7020
1119  7145
1118  6900
1117  7205
1116  7030
1115  7150
1114  7170
1113  7000
1112  7055
1111  7020
1110  7340
1109  7105
1108  7020
1107  7220
1106  7115
1105  6965
1104  6835
1103  6750
1102  6580
1101  6630
1100  6415
1099  6815
1098  6905
1097  7055
1096  6600
1095  6845
1094  6635
1093  6645
1092  6870
1091  6825
1090  6945
1089  7100
1088  7235
1087  7350
1086  7025
1085  7105
1084  6815
1083  6575
1082  6835
1081  6990
1080  6585
1079  6825
1078  6345
1077  6235
1076  6425
1075  6325
1074  6005
1073  6210
1072  6175
1071  6095
1070  6400
1069  6080
1068  6215
1067  6360
1066  6780
1065  7080
1064  6905
1063  7560
1062  7495
1061  6400
1060  6330
1059  6090
1058  6235
1057  5820
1056  5840
1055  5725
1054  5540
1053  5950
1052  5725
1051  5470
1050  5360
1049  5520
1048  5435
1047  5010
1046  5190
1045  5280
1044  5290
1043  5195
1042  5445
1041  4950
1040  5510
1039  5170
1038  5150
1037  5585
1036  5325
1035  5520
1034  5340
1033  5260
1032  5535
1031  5430
1030  5435
1029  5435
1028  5670
1027  5405
1026  5640
1025  5455
1024  5490
1023  5250
1022  5155
1021  5480
1020  5325
1019  5765
1018  5355
1017  5510
1016  5625
1015  5545
1014  5520
1013  5635
1012  5275
1011  5325
1010  5595
1009  5430
1008  5480
1007  5355
1006  5605
1005  5215
1004  5220
1003  5465
1002  5790
1001  5145
1000  5240
999  5400
998  5705
997  5465
996  5650
995  5325
994  5725
993  5470
992  5640
991  5580
990  5370
989  5170
988  5300
987  4955
986  5270
985  5170
984  4955
983  5050
982  5175
981  5160
980  4920
979  5250
978  4925
977  5040
976  5145
975  4865
974  4895
973  5155
972  4580
971  4955
970  4670
969  4630
968  4525
967  4770
966  4660
965  4745
964  4280
963  4860
962  4845
961  4795
960  4630
959  4555
958  4645
957  4610
956  4580
955  4540
954  4590
953  4665
952  4650
951  4425
950  4540
949  4665
948  4225
947  4795
946  4745
945  4525
944  4495
943  4520
942  4855
941  4915
940  4765
939  4795
938  4890
937  4880
936  5005
935  5065
934  4960
933  4965
932  5185
931  5070
930  4780
929  5135
928  5320
927  5415
926  5020
925  5210
924  5095
923  5220
922  5365
921  4990
920  5155
919  5290
918  4850
917  5490
916  5330
915  5105
914  5700
913  5550
912  5510
911  5390
910  5570
909  6165
908  6000
907  6390
906  6500
905  6710
904  6530
903  6750
902  6600
901  6515
900  6255
899  5900
898  6095
897  5655
896  5790
895  5530
894  5260
893  5535
892  5875
891  5585
890  5695
889  5600
888  5220
887  5145
886  4880
885  4865
884  4920
883  4505
882  4770
881  4425
880  4405
879  4250
878  4300
877  4050
876  4510
875  4170
874  4220
873  4450
872  4660
871  4560
870  4635
869  4475
868  4285
867  4255
866  4205
865  4390
864  4365
863  4295
862  4590
861  4135
860  4470
859  4390
858  4520
857  4495
856  4200
855  4425
854  4820
853  4665
852  4695
851  4420
850  4655
849  4495
848  4490
847  4455
846  4855
845  4735
844  4625
843  4615
842  4625
841  4980
840  4755
839  4635
838  4750
837  4950
836  4690
835  4850
834  5025
833  4690
832  4960
831  4990
830  4785
829  4895
828  5320
827  4950
826  4875
825  5130
824  4955
823  5505
822  5545
821  5480
820  5340
819  5340
818  5535
817  5045
816  5030
815  4920
814  5240
813  4965
812  5035
811  5290
810  5105
809  5640
808  5530
807  5595
806  5565
805  5300
804  5390
803  5110
802  5110
801  5085
800  5275
799  5950
798  8010
797  11375
796  10030
795  6950
794  5845
793  5080
792  5270
791  5205
790  4925
789  5100
788  5000
787  5205
786  5005
785  4915
784  5345
783  7520
782  12100
781  13265
780  8800
779  5625
778  4790
777  4730
776  4310
775  4415
774  4450
773  4620
772  5170
771  4895
770  4890
769  4845
768  4210
767  4275
766  3850
765  4035
764  4050
763  4015
762  4090
761  4220
760  4210
759  4275
758  4135
757  4165
756  4200
755  4215
754  4120
753  4095
752  4355
751  4135
750  4445
749  4065
748  4010
747  4170
746  4310
745  3895
744  4005
743  4085
742  4260
741  4145
740  4185
739  4175
738  4315
737  4475
736  4065
735  4150
734  4170
733  4240
732  4445
731  4170
730  4355
729  4140
728  4385
727  4255
726  4375
725  4320
724  4360
723  4190
722  4145
721  4350
720  4400
719  4370
718  4335
717  4380
716  4310
715  4275
714  4250
713  4130
712  4430
711  4055
710  4705
709  4410
708  4300
707  4425
706  4745
705  4800
704  5105
703  4540
702  4090
701  4185
700  3970
699  4040
698  4375
697  4370
696  4240
695  4245
694  3935
693  4155
692  4135
691  4205
690  4260
689  4145
688  4185
687  3930
686  4410
685  4270
684  4110
683  4025
682  3915
681  3950
680  4150
679  4000
678  4055
677  3905
676  3800
675  3830
674  3985
673  3960
672  3840
671  3845
670  4275
669  4675
668  4950
667  5450
666  5525
665  4895
664  4340
663  3980
662  3965
661  3685
660  3840
659  3710
658  3605
657  3770
656  3705
655  3575
654  3515
653  3750
652  3730
651  3700
650  3510
649  3410
648  3420
647  3620
646  3630
645  3475
644  3520
643  3470
642  3560
641  3385
640  3445
639  3625
638  3675
637  3755
636  3760
635  3420
634  3500
633  3455
632  3570
631  3555
630  3215
629  3510
628  3715
627  3385
626  3435
625  3515
624  3570
623  3635
622  3630
621  3805
620  3635
619  3780
618  3830
617  4015
616  3755
615  3625
614  3805
613  3735
612  3745
611  3640
610  3785
609  3860
608  3595
607  3645
606  3710
605  3635
604  3600
603  3830
602  3575
601  3690
600  3790
599  3715
598  3835
597  3970
596  4120
595  3785
594  3625
593  3920
592  3595
591  3765
590  3905
589  4015
588  3530
587  3630
586  3570
585  3790
584  3670
583  3680
582  4250
581  3710
580  3905
579  4060
578  3750
577  3695
576  4000
575  4195
574  3670
573  3815
572  4050
571  3825
570  3745
569  3705
568  3945
567  3880
566  4000
565  3955
564  3930
563  3915
562  3960
561  4050
560  4015
559  3790
558  3935
557  4045
556  3800
555  3815
554  3935
553  4275
552  4205
551  3955
550  4035
549  3945
548  3825
547  3715
546  4040
545  3935
544  3895
543  3665
542  3880
541  4030
540  3715
539  3890
538  3610
537  3945
536  3765
535  3830
534  4110
533  4130
532  4860
531  5245
530  5065
529  4105
528  3665
527  3690
526  3770
525  3675
524  3605
523  3870
522  3810
521  3765
520  3810
519  3745
518  3730
517  3645
516  3625
515  3530
514  3555
513  3460
512  3625
511  3745
510  3780
509  3615
508  3850
507  3985
506  3525
505  3775
504  3815
503  3795
502  3715
501  3535
500  3795
499  3935
498  3880
497  3965
496  4330
495  3955
494  3960
493  3735
492  3860
491  3635
490  3765
489  3880
488  4095
487  4250
486  3770
485  3690
484  3705
483  3605
482  3775
481  3900
480  3830
479  3775
478  3795
477  3835
476  4130
475  4185
474  3930
473  3790
472  4145
471  4000
470  3980
469  3945
468  4240
467  3975
466  3995
465  3775
464  3790
463  3540
462  3585
461  3290
460  3170
459  2805
458  2885
457  3080
456  3080
455  3665
454  5715
453  7845
452  6365
451  3480
450  2580
449  2380
448  2880
447  4830
446  8635
445  10005
444  6215
443  3145
442  2180
441  1975
440  1820
439  1890
438  1600
437  1720
436  2010
435  1995
434  2005
433  1740
432  1595
431  1485
430  1420
429  1290
428  1525
427  1450
426  1350
425  1445
424  1275
423  1460
422  1470
421  1540
420  1435
419  1355
418  1445
417  1280
416  1415
415  1325
414  1445
413  1395
412  1445
411  1240
410  1365
409  1380
408  1430
407  1390
406  1400
405  1320
404  1335
403  1420
402  1435
401  1460
400  1355
399  1350
398  1495
397  1410
396  1375
395  1300
394  1260
393  1195
392  1360
391  1480
390  1335
389  1390
388  1375
387  1390
386  1300
385  1420
384  1430
383  1430
382  1385
381  1585
380  1295
379  1320
378  1215
377  1315
376  1390
375  1535
374  1380
373  1475
372  1215
371  1325
370  1290
369  1165
368  1280
367  1315
366  1235
365  1340
364  1190
363  1300
362  1350
361  1265
360  1295
359  1180
358  1290
357  1410
356  1250
355  1140
354  1225
353  1250
352  1435
351  1400
350  1240
349  1435
348  1415
347  1365
346  1375
345  1275
344  1330
343  1305
342  1355
341  1460
340  1195
339  1475
338  1405
337  1530
336  1365
335  1320
334  1340
333  1515
332  1295
331  1300
330  1410
329  1255
328  1430
327  1290
326  1530
325  1450
324  1335
323  1465
322  1340
321  1325
320  1365
319  1350
318  1235
317  1455
316  1395
315  1300
314  1385
313  1160
312  1440
311  1385
310  1575
309  1595
308  1570
307  1555
306  1435
305  1480
304  1505
303  1330
302  1355
301  1505
300  1520
299  1395
298  1455
297  1395
296  1530
295  1390
294  1500
293  1430
292  1540
291  1445
290  1530
289  1715
288  1600
287  1730
286  1545
285  1515
284  1500
283  1410
282  1430
281  1395
280  1610
279  1445
278  1430
277  1270
276  1565
275  1550
274  1560
273  1730
272  1940
271  2065
270  2440
269  1995
268  1750
267  1520
266  1610
265  1580
264  1525
263  1395
262  1480
261  1615
260  1495
259  1555
258  1510
257  1655
256  1455
255  1440
254  1725
253  1615
252  1440
251  1475
250  1570
249  1340
248  1570
247  1465
246  1420
245  1375
244  1495
243  1535
242  1670
241  1500
240  1460
239  1375
238  1505
237  1460
236  1545
235  1465
234  1460
233  1365
232  1650
231  1640
230  1500
229  1580
228  1580
227  1580
226  1440
225  1600
224  1615
223  1660
222  1470
221  1520
220  1575
219  1655
218  1590
217  1675
216  1785
215  1655
214  1710
213  1585
212  1710
211  1615
210  1615
209  1610
208  1630
207  1505
206  1595
205  1540
204  1535
203  1675
202  1795
201  2540
200  2840
199  3055
198  1980
197  1530
196  1500
195  1585
194  1540
193  1740
192  1610
191  1665
190  1855
189  1740
188  1560
187  1570
186  1550
185  1470
184  1490
183  1440
182  1530
181  1860
180  2065
179  2020
178  1750
177  1670
176  1430
175  1490
174  1465
173  1410
172  1305
171  1435
170  1415
169  1360
168  1295
167  1445
166  1405
165  1435
164  1425
163  1375
162  1410
161  1340
160  1455
159  1510
158  1395
157  1340
156  1480
155  1400
154  1400
153  1555
152  1430
151  1390
150  1445
149  1360
148  1455
147  1385
146  1400
145  1400
144  1470
143  1435
142  1405
141  1425
140  1510
139  1495
138  1435
137  1395
136  1270
135  1335
134  1480
133  1505
132  1455
131  1545
130  1635
129  1610
128  1570
127  1535
126  1565
125  1660
124  1750
123  1785
122  1635
121  1610
120  1640
119  1530
118  1665
117  1580
116  1420
115  1505
114  1675
113  1535
112  1470
111  1400
110  1510
109  1490
108  1550
107  1645
106  1560
105  1600
104  1430
103  1650
102  1685
101  1420
100  1585
99  1575
98  1530
97  1465
96  1645
95  2130
94  2560
93  2565
92  2750
91  3120
90  2060
89  1645
88  1460
87  1355
86  1460
85  1430
84  1580
83  1520
82  1705
81  1625
80  1475
79  1410
78  1525
77  1385
76  1510
75  1230
74  1290
73  1400
72  1285
71  1240
70  1180
69  1155
68  1045
67  1160
66  1170
65  1060
64  1125
63  955
62  1010
61  975
60  1170
59  990
58  1130
57  1050
56  1125
55  1010
54  1145
53  1145
52  1150
51  1095
50  1075
49  1010
48  1105
47  1330
46  1220
45  1210
44  1195
43  1175
42  1145
41  1295
40  1050
39  1135
38  1135
37  1290
36  1075
35  1060
34  1205
33  1045
32  1055
31  995
30  1020
29  1040
28  1165
27  1130
26  1130
25  1065
24  1075
23  1015
22  1090
21  1180
20  2090
19  2825
18  2475
17  1600
16  1115
15  1020
14  775
13  825
12  710
11  740
10  840
9  960
8  1020
7  1030
6  940
5  890
4  880
3  710
2  665
1  710
-2.2737368e-013  685
-1  670
-2  680
-3  705
-4  705

# Region:            N1s
# Acquisition Date:  08/26/22 14:36:17 UTC
# Analysis Method:   XPS
# Analyzer:          Phoibos 100 R6
# Analyzer Lens:     LargeArea:1.5kV
# Analyzer Slit:     1:0.2x20\B:open
# Scan Mode:         FixedAnalyzerTransmission
# Curves/Scan:       1
# Values/Curve:      121
# Dwell Time:        0.8
# Excitation Energy: 1486.61
# Binding Energy:    409
# Pass Energy:       30
# Bias Voltage:      90
# Detector Voltage:  2600
# Eff. Workfunction: 4.309
# Source:            X-Ray Dummy
# Comment:           
#
# Cycle: 0
# Number of Scans: 49
#
# Cycle: 0, Curve: 0
# Acquisition Date: 08/26/22 14:36:17 UTC
#
# ColumnLabels: energy counts/s
#
409  1076.352
408.9  1080.1276
408.8  1091.5816
408.7  1073.5714
408.6  1075.0765
408.5  1075.5612
408.4  1074.1327
408.3  1073.6224
408.2  1082.7041
408.1  1078.8265
408  1087.2704
407.9  1078.801
407.8  1086.6327
407.7  1090.3827
407.6  1070.4337
407.5  1072.551
407.4  1077.9337
407.3  1080.7653
407.2  1083.6224
407.1  1088.7755
407  1086.4796
406.9  1090.8673
406.8  1082.7296
406.7  1085.5102
406.6  1079.5408
406.5  1088.5459
406.4  1091.301
406.3  1084.4133
406.2  1082.551
406.1  1075.0765
406  1083.4439
405.9  1080.3316
405.8  1070.4082
405.7  1079.7449
405.6  1093.0102
405.5  1080.1786
405.4  1094.3622
405.3  1083.1122
405.2  1076.7602
405.1  1079.2347
405  1083.2143
404.9  1091.7857
404.8  1090.3827
404.7  1089.3367
404.6  1079.4388
404.5  1087.3469
404.4  1075.1276
404.3  1083.6224
404.2  1078.2398
404.1  1084.1837
404  1080.7653
403.9  1078.1633
403.8  1085.2806
403.7  1093.3929
403.6  1089.1071
403.5  1092.5765
403.4  1081.8878
403.3  1092.3214
403.2  1097.3469
403.1  1087.6531
403  1084.5408
402.9  1091.148
402.8  1091.301
402.7  1097.8571
402.6  1096.0969
402.5  1097.7806
402.4  1090.6888
402.3  1101.9133
402.2  1094.4898
402.1  1101.148
402  1100.1276
401.9  1091.199
401.8  1087.2959
401.7  1097.9592
401.6  1097.0918
401.5  1100.9949
401.4  1098.6735
401.3  1096.6837
401.2  1099.9745
401.1  1095.2041
401  1091.352
400.9  1106.0969
400.8  1090.6122
400.7  1094.9745
400.6  1087.9082
400.5  1098.9541
400.4  1094.9235
400.3  1097.9592
400.2  1093.9796
400.1  1085.8163
400  1097.0408
399.9  1092.2449
399.8  1086.7857
399.7  1091.2245
399.6  1093.4439
399.5  1081.25
399.4  1087.7041
399.3  1078.5969
399.2  1090.6888
399.1  1087.551
399  1076.1735
398.9  1090.0765
398.8  1081.199
398.7  1078.0612
398.6  1081.25
398.5  1074.2347
398.4  1088.1888
398.3  1083.1122
398.2  1084.6173
398.1  1078.1122
398  1061.4031
397.9  1077.449
397.8  1066.4541
397.7  1074.1582
397.6  1068.2398
397.5  1075.7908
397.4  1072.0153
397.3  1071.9388
397.2  1066.2245
397.1  1075.5102
397  1068.648

# Region:            O1s
# Acquisition Date:  08/26/22 12:47:50 UTC
# Analysis Method:   XPS
# Analyzer:          Phoibos 100 R6
# Analyzer Lens:     LargeArea:1.5kV
# Analyzer Slit:     1:0.2x20\B:open
# Scan Mode:         FixedAnalyzerTransmission
# Curves/Scan:       1
# Values/Curve:      141
# Dwell Time:        0.8
# Excitation Energy: 1486.61
# Binding Energy:    541
# Pass Energy:       30
# Bias Voltage:      90
# Detector Voltage:  2600
# Eff. Workfunction: 4.309
# Source:            X-Ray Dummy
# Comment:           
#
# Cycle: 0
# Number of Scans: 19
#
# Cycle: 0, Curve: 0
# Acquisition Date: 08/26/22 12:47:50 UTC
#
# ColumnLabels: energy counts/s
#
541  3299.1447
540.9  3316.4474
540.8  3312.4342
540.7  3303.9474
540.6  3270.9868
540.5  3312.8947
540.4  3289.2105
540.3  3279.7368
540.2  3281.6447
540.1  3248.3553
540  3275
539.9  3258.2237
539.8  3264.6711
539.7  3259.0132
539.6  3262.7632
539.5  3289.7368
539.4  3274.2763
539.3  3279.4079
539.2  3264.2105
539.1  3281.9737
539  3282.1711
538.9  3260.3947
538.8  3253.6184
538.7  3228.4868
538.6  3281.6447
538.5  3252.5658
538.4  3264.6711
538.3  3249.1447
538.2  3251.4474
538.1  3252.9605
538  3257.5
537.9  3283.2237
537.8  3265.8553
537.7  3285.1974
537.6  3302.0395
537.5  3282.7632
537.4  3296.4474
537.3  3266.8421
537.2  3284.3421
537.1  3267.1711
537  3250.0658
536.9  3273.4211
536.8  3269.0789
536.7  3263.3553
536.6  3246.5132
536.5  3277.4342
536.4  3256.6447
536.3  3252.8947
536.2  3245.3947
536.1  3241.3158
536  3243.3553
535.9  3268.8816
535.8  3246.1842
535.7  3261.0526
535.6  3256.9079
535.5  3261.3158
535.4  3247.6974
535.3  3270.5921
535.2  3297.1053
535.1  3269.7368
535  3282.9605
534.9  3301.1842
534.8  3290.3289
534.7  3314.2105
534.6  3325.3947
534.5  3343.9474
534.4  3359.4079
534.3  3352.3684
534.2  3410.8553
534.1  3406.1184
534  3403.6842
533.9  3403.8158
533.8  3445.5263
533.7  3487.0395
533.6  3511.8421
533.5  3498.2895
533.4  3531.3816
533.3  3556.9737
533.2  3588.1579
533.1  3604.1447
533  3649.6711
532.9  3705.7895
532.8  3727.1053
532.7  3774.9342
532.6  3825.0658
532.5  3850.4605
532.4  3900.9868
532.3  3996.4474
532.2  4033.0263
532.1  4113.2895
532  4185.8553
531.9  4234.6053
531.8  4344.0789
531.7  4411.1184
531.6  4503.75
531.5  4563.4868
531.4  4663.8158
531.3  4712.9605
531.2  4727.1711
531.1  4795.5263
531  4863.6842
530.9  4837.8947
530.8  4833.1579
530.7  4811.4474
530.6  4710.1316
530.5  4671.7763
530.4  4606.5789
530.3  4486.1184
530.2  4372.3026
530.1  4253.4868
530  4149.8684
529.9  4037.6316
529.8  3910.0658
529.7  3773.6184
529.6  3709.8684
529.5  3610.5921
529.4  3545.1974
529.3  3454.8026
529.2  3394.3421
529.1  3338.4868
529  3327.2368
528.9  3288.0921
528.8  3260.0658
528.7  3259.0789
528.6  3219.8684
528.5  3216.0526
528.4  3189.6711
528.3  3195.5263
528.2  3174.6053
528.1  3181.4474
528  3159.0789
527.9  3170.5921
527.8  3185.5263
527.7  3142.6974
527.6  3144.4079
527.5  3148.6842
527.4  3146.0526
527.3  3136.9737
527.2  3149.0132
527.1  3138.0921
527  3156.4474

# Region:            Si2p
# Acquisition Date:  08/26/22 14:03:32 UTC
# Analysis Method:   XPS
# Analyzer:          Phoibos 100 R6
# Analyzer Lens:     LargeArea:1.5kV
# Analyzer Slit:     1:0.2x20\B:open
# Scan Mode:         FixedAnalyzerTransmission
# Curves/Scan:       1
# Values/Curve:      261
# Dwell Time:        0.8
# Excitation Energy: 1486.61
# Binding Energy:    115
# Pass Energy:       30
# Bias Voltage:      90
# Detector Voltage:  2600
# Eff. Workfunction: 4.309
# Source:            X-Ray Dummy
# Comment:           
#
# Cycle: 0
# Number of Scans: 29
#
# Cycle: 0, Curve: 0
# Acquisition Date: 08/26/22 14:03:32 UTC
#
# ColumnLabels: energy counts/s
#
115  999.61207
114.9  1008.7069
114.8  1000.2155
114.7  1007.3276
114.6  1000.3879
114.5  1009.5259
114.4  996.59483
114.3  998.27586
114.2  987.24138
114.1  986.42241
114  992.84483
113.9  992.37069
113.8  995.51724
113.7  993.7931
113.6  984.65517
113.5  983.06034
113.4  994.31034
113.3  987.28448
113.2  993.36207
113.1  992.5
113  998.57759
112.9  988.27586
112.8  985.12931
112.7  986.03448
112.6  996.93966
112.5  988.75
112.4  988.23276
112.3  980.43103
112.2  991.07759
112.1  989.82759
112  982.75862
111.9  974.22414
111.8  987.97414
111.7  988.06034
111.6  989.13793
111.5  982.02586
111.4  991.50862
111.3  975.21552
111.2  989.26724
111.1  986.81034
111  981.93966
110.9  969.43966
110.8  975.94828
110.7  982.58621
110.6  981.25
110.5  978.87931
110.4  979.35345
110.3  970.73276
110.2  986.16379
110.1  989.78448
110  987.88793
109.9  987.62931
109.8  985.81897
109.7  1001.7672
109.6  983.31897
109.5  991.98276
109.4  985.12931
109.3  981.89655
109.2  989.09483
109.1  965.68966
109  985.43103
108.9  988.18966
108.8  984.18103
108.7  981.42241
108.6  979.61207
108.5  985.30172
108.4  988.92241
108.3  992.62931
108.2  999.35345
108.1  988.14655
108  987.5431
107.9  1005.2586
107.8  996.68103
107.7  981.12069
107.6  982.19828
107.5  997.75862
107.4  984.78448
107.3  991.37931
107.2  1003.75
107.1  985.81897
107  998.96552
106.9  998.7931
106.8  1005.4741
106.7  999.43966
106.6  989.22414
106.5  993.75
106.4  1004.7414
106.3  990.34483
106.2  988.14655
106.1  996.85345
106  1007.1552
105.9  998.57759
105.8  1011.4224
105.7  995
105.6  1000.9483
105.5  1010.0431
105.4  1006.1638
105.3  1010.5603
105.2  1010
105.1  1003.4914
105  1016.3362
104.9  1015.6034
104.8  1015.9914
104.7  1010.7759
104.6  1015.7759
104.5  1025.1293
104.4  1017.1552
104.3  1004.0086
104.2  1023.1466
104.1  1019.9569
104  1023.6638
103.9  1010.819
103.8  1024.9138
103.7  1026.1207
103.6  1025.9914
103.5  1040
103.4  1029.4828
103.3  1030.3017
103.2  1026.7241
103.1  1022.5
103  1013.4052
102.9  1025.8621
102.8  1022.8879
102.7  1024.6983
102.6  1017.5
102.5  1013.6638
102.4  1006.3362
102.3  1014.8276
102.2  1013.9655
102.1  1017.2414
102  1000.2155
101.9  1017.8879
101.8  1006.9397
101.7  1004.6121
101.6  1010.431
101.5  1016.7241
101.4  1006.3793
101.3  1013.0603
101.2  1006.681
101.1  1015.2155
101  1010.2586
100.9  1009.2241
100.8  998.7069
100.7  996.12069
100.6  998.62069
100.5  1004.4397
100.4  1002.4569
100.3  995.68966
100.2  1003.0603
100.1  1004.6552
100  996.2931
99.9  983.31897
99.8  985.60345
99.7  973.57759
99.6  987.41379
99.5  983.57759
99.4  973.44828
99.3  972.41379
99.2  976.59483
99.1  976.55172
99  970.0431
98.9  957.62931
98.8  972.06897
98.7  973.01724
98.6  961.2931
98.5  982.28448
98.4  974.78448
98.3  971.25
98.2  965.99138
98.1  986.37931
98  967.28448
97.9  977.75862
97.8  992.28448
97.7  990.77586
97.6  983.87931
97.5  987.28448
97.4  989.39655
97.3  982.62931
97.2  982.15517
97.1  971.76724
97  978.40517
96.9  983.96552
96.8  982.4569
96.7  1007.069
96.6  999.22414
96.5  998.18966
96.4  998.7069
96.3  1021.8103
96.2  1015.9052
96.1  1026.2069
96  1031.4655
95.9  1063.4914
95.8  1059.6552
95.7  1103.0603
95.6  1110.2155
95.5  1137.4569
95.4  1178.6638
95.3  1202.7586
95.2  1250.7759
95.1  1291.0776
95  1327.3707
94.9  1394.2241
94.8  1445.3448
94.7  1507.5431
94.6  1560.7328
94.5  1627.7155
94.4  1696.4655
94.3  1727.0259
94.2  1789.9138
94.1  1819.0086
94  1836.681
93.9  1859.0086
93.8  1846.3793
93.7  1851.681
93.6  1827.4569
93.5  1799.9138
93.4  1759.6983
93.3  1723.5345
93.2  1665.9914
93.1  1629.8707
93  1587.4138
92.9  1564.0086
92.8  1540.5172
92.7  1537.1121
92.6  1537.7155
92.5  1561.9397
92.4  1597.5
92.3  1651.5948
92.2  1705.1293
92.1  1761.1207
92  1849.6552
91.9  1898.0603
91.8  1981.1207
91.7  2057.931
91.6  2103.7069
91.5  2143.4483
91.4  2184.8707
91.3  2198.4914
91.2  2190.1293
91.1  2169.8707
91  2114.1379
90.9  2054.4397
90.8  1970.3017
90.7  1886.0776
90.6  1803.6207
90.5  1697.1552
90.4  1604.8707
90.3  1515.0862
90.2  1434.0948
90.1  1341.8534
90  1278.319
89.9  1215.8621
89.8  1156.7241
89.7  1140
89.6  1083.75
89.5  1067.1552
89.4  1038.7069
89.3  1028.9224
89.2  1010.7328
89.1  1002.1983
89  988.36207

# Region:            In3d
# Acquisition Date:  08/26/22 09:10:55 UTC
# Analysis Method:   XPS
# Analyzer:          Phoibos 100 R6
# Analyzer Lens:     LargeArea:1.5kV
# Analyzer Slit:     1:0.2x20\B:open
# Scan Mode:         FixedAnalyzerTransmission
# Curves/Scan:       1
# Values/Curve:      231
# Dwell Time:        0.8
# Excitation Energy: 1486.61
# Binding Energy:    460
# Pass Energy:       30
# Bias Voltage:      90
# Detector Voltage:  2600
# Eff. Workfunction: 4.309
# Source:            X-Ray Dummy
# Comment:           
#
# Cycle: 0
# Number of Scans: 3
#
# Cycle: 0, Curve: 0
# Acquisition Date: 08/26/22 09:10:55 UTC
#
# ColumnLabels: energy counts/s
#
460  2533.75
459.9  2601.6667
459.8  2530.8333
459.7  2589.1667
459.6  2528.75
459.5  2490.8333
459.4  2563.75
459.3  2534.1667
459.2  2613.75
459.1  2480.4167
459  2488.75
458.9  2465.4167
458.8  2433.75
458.7  2500.8333
458.6  2421.25
458.5  2419.1667
458.4  2496.25
458.3  2443.3333
458.2  2456.6667
458.1  2448.3333
458  2457.0833
457.9  2405
457.8  2428.3333
457.7  2459.5833
457.6  2415.8333
457.5  2405.8333
457.4  2386.6667
457.3  2505
457.2  2452.0833
457.1  2460.8333
457  2457.0833
456.9  2510.4167
456.8  2503.75
456.7  2489.1667
456.6  2452.5
456.5  2514.1667
456.4  2542.5
456.3  2516.6667
456.2  2626.6667
456.1  2597.5
456  2632.9167
455.9  2629.5833
455.8  2602.9167
455.7  2720.4167
455.6  2738.75
455.5  2726.25
455.4  2820.4167
455.3  2830.8333
455.2  2969.1667
455.1  3080.4167
455  3115
454.9  3162.9167
454.8  3291.25
454.7  3430.4167
454.6  3612.9167
454.5  3765.4167
454.4  3975
454.3  4138.75
454.2  4289.1667
454.1  4530.4167
454  4788.3333
453.9  4964.5833
453.8  5145
453.7  5512.9167
453.6  5665.8333
453.5  5956.6667
453.4  6033.3333
453.3  6246.6667
453.2  6323.3333
453.1  6502.5
453  6661.6667
452.9  6702.5
452.8  6682.0833
452.7  6626.25
452.6  6512.0833
452.5  6303.75
452.4  6116.25
452.3  5881.25
452.2  5488.75
452.1  5073.3333
452  4790
451.9  4422.5
451.8  4175.4167
451.7  3851.6667
451.6  3551.6667
451.5  3211.25
451.4  3039.1667
451.3  2757.0833
451.2  2576.6667
451.1  2408.3333
451  2328.3333
450.9  2269.5833
450.8  2136.6667
450.7  2124.5833
450.6  2022.0833
450.5  2002.0833
450.4  1936.25
450.3  1942.5
450.2  1950.8333
450.1  1883.3333
450  1882.5
449.9  1853.3333
449.8  1885
449.7  1925.4167
449.6  1875
449.5  1887.5
449.4  1875.4167
449.3  1884.1667
449.2  1884.5833
449.1  1947.0833
449  1970.8333
448.9  2010.8333
448.8  2009.5833
448.7  2002.5
448.6  1979.1667
448.5  2065.4167
448.4  2144.5833
448.3  2199.5833
448.2  2225.4167
448.1  2322.0833
448  2354.5833
447.9  2484.5833
447.8  2568.3333
447.7  2627.5
447.6  2757.5
447.5  3007.0833
447.4  3105.8333
447.3  3276.6667
447.2  3452.5
447.1  3730
447  3975.8333
446.9  4251.25
446.8  4530.8333
446.7  4787.9167
446.6  5164.1667
446.5  5375.4167
446.4  5755
446.3  5999.1667
446.2  6455.8333
446.1  6752.0833
446  7089.5833
445.9  7402.9167
445.8  7670
445.7  8050.8333
445.6  8090
445.5  8296.6667
445.4  8392.0833
445.3  8528.3333
445.2  8385.8333
445.1  8282.0833
445  8187.5
444.9  7970
444.8  7574.1667
444.7  7102.0833
444.6  6714.5833
444.5  6324.5833
444.4  5789.5833
444.3  5238.3333
444.2  4801.6667
444.1  4355
444  3960.8333
443.9  3623.3333
443.8  3303.3333
443.7  3062.9167
443.6  2801.6667
443.5  2590.4167
443.4  2582.5
443.3  2370
443.2  2311.6667
443.1  2204.5833
443  2156.25
442.9  2092.9167
442.8  2039.5833
442.7  2004.1667
442.6  1945.4167
442.5  1866.6667
442.4  1936.6667
442.3  1844.1667
442.2  1770.4167
442.1  1747.5
442  1737.5
441.9  1714.5833
441.8  1678.3333
441.7  1671.6667
441.6  1635.8333
441.5  1595.8333
441.4  1617.5
441.3  1604.1667
441.2  1585.4167
441.1  1580
441  1542.9167
440.9  1630.8333
440.8  1537.0833
440.7  1521.6667
440.6  1519.1667
440.5  1550.4167
440.4  1488.75
440.3  1447.0833
440.2  1443.3333
440.1  1422.9167
440  1414.1667
439.9  1363.3333
439.8  1406.25
439.7  1377.5
439.6  1342.9167
439.5  1364.1667
439.4  1352.9167
439.3  1363.75
439.2  1362.5
439.1  1330
439  1323.3333
438.9  1333.3333
438.8  1318.75
438.7  1242.5
438.6  1325.4167
438.5  1284.5833
438.4  1324.1667
438.3  1282.0833
438.2  1355.4167
438.1  1249.5833
438  1272.5
437.9  1333.3333
437.8  1325.4167
437.7  1319.1667
437.6  1344.5833
437.5  1360.8333
437.4  1375
437.3  1353.75
437.2  1372.9167
437.1  1389.5833
437  1403.75

# Region:            Sn3d
# Acquisition Date:  08/26/22 09:14:02 UTC
# Analysis Method:   XPS
# Analyzer:          Phoibos 100 R6
# Analyzer Lens:     LargeArea:1.5kV
# Analyzer Slit:     1:0.2x20\B:open
# Scan Mode:         FixedAnalyzerTransmission
# Curves/Scan:       1
# Values/Curve:      231
# Dwell Time:        0.8
# Excitation Energy: 1486.61
# Binding Energy:    503
# Pass Energy:       30
# Bias Voltage:      90
# Detector Voltage:  2600
# Eff. Workfunction: 4.309
# Source:            X-Ray Dummy
# Comment:           
#
# Cycle: 0
# Number of Scans: 3
#
# Cycle: 0, Curve: 0
# Acquisition Date: 08/26/22 09:14:02 UTC
#
# ColumnLabels: energy counts/s
#
503  3124.5833
502.9  3107.9167
502.8  3126.25
502.7  3128.75
502.6  3116.6667
502.5  3127.5
502.4  3069.5833
502.3  3127.9167
502.2  3067.0833
502.1  3104.5833
502  3124.5833
501.9  3121.6667
501.8  3112.5
501.7  3162.0833
501.6  3134.1667
501.5  3121.6667
501.4  3080.8333
501.3  3019.1667
501.2  3120.8333
501.1  3082.0833
501  3105.4167
500.9  3099.5833
500.8  3070.4167
500.7  3149.5833
500.6  3084.1667
500.5  3098.3333
500.4  3109.5833
500.3  3162.9167
500.2  3107.9167
500.1  3105
500  3137.9167
499.9  3066.6667
499.8  3082.0833
499.7  3088.3333
499.6  3085.8333
499.5  3090.8333
499.4  3154.5833
499.3  3077.9167
499.2  3093.75
499.1  3072.5
499  3117.0833
498.9  3097.5
498.8  3085.4167
498.7  3062.0833
498.6  3101.25
498.5  3073.75
498.4  3148.3333
498.3  3133.3333
498.2  3155.4167
498.1  3143.75
498  3172.9167
497.9  3187.0833
497.8  3169.1667
497.7  3167.5
497.6  3221.6667
497.5  3162.9167
497.4  3187.5
497.3  3220
497.2  3272.9167
497.1  3181.6667
497  3290.8333
496.9  3295.4167
496.8  3323.75
496.7  3344.5833
496.6  3275.4167
496.5  3310.4167
496.4  3352.9167
496.3  3325
496.2  3265.4167
496.1  3398.75
496  3493.75
495.9  3398.75
495.8  3508.75
495.7  3431.25
495.6  3480
495.5  3399.1667
495.4  3470.8333
495.3  3440.4167
495.2  3397.9167
495.1  3365.8333
495  3402.9167
494.9  3305
494.8  3284.1667
494.7  3287.5
494.6  3247.9167
494.5  3243.75
494.4  3182.0833
494.3  3185
494.2  3178.3333
494.1  3140
494  3087.9167
493.9  3116.6667
493.8  3092.5
493.7  3129.1667
493.6  3124.5833
493.5  3096.25
493.4  3064.1667
493.3  3050.4167
493.2  3131.6667
493.1  3047.0833
493  3076.25
492.9  3086.6667
492.8  3051.25
492.7  3062.5
492.6  3063.3333
492.5  3058.75
492.4  3100.4167
492.3  3023.3333
492.2  3037.5
492.1  3020
492  3072.5
491.9  3126.6667
491.8  3088.75
491.7  3109.5833
491.6  3091.6667
491.5  3033.3333
491.4  3079.5833
491.3  3090.8333
491.2  3061.25
491.1  3085.4167
491  3003.3333
490.9  3000
490.8  3062.0833
490.7  3062.9167
490.6  3026.25
490.5  3009.5833
490.4  3079.5833
490.3  3100.4167
490.2  3045.8333
490.1  3044.1667
490  3070
489.9  3115.4167
489.8  3060.8333
489.7  3082.0833
489.6  3079.1667
489.5  3131.25
489.4  3127.5
489.3  3127.0833
489.2  3157.0833
489.1  3144.5833
489  3161.6667
488.9  3230.8333
488.8  3236.6667
488.7  3287.9167
488.6  3332.5
488.5  3381.25
488.4  3356.25
488.3  3299.1667
488.2  3347.5
488.1  3417.5
488  3376.25
487.9  3471.25
487.8  3460
487.7  3660.4167
487.6  3524.5833
487.5  3558.3333
487.4  3501.25
487.3  3588.3333
487.2  3588.75
487.1  3530
487  3496.6667
486.9  3507.0833
486.8  3507.0833
486.7  3497.0833
486.6  3441.6667
486.5  3389.5833
486.4  3383.3333
486.3  3355.8333
486.2  3345
486.1  3312.5
486  3260
485.9  3210.4167
485.8  3174.5833
485.7  3113.3333
485.6  3148.3333
485.5  3134.5833
485.4  3117.9167
485.3  3060
485.2  3137.0833
485.1  3084.5833
485  3078.3333
484.9  3012.5
484.8  3102.0833
484.7  3029.5833
484.6  3020
484.5  3070.8333
484.4  3032.0833
484.3  3041.6667
484.2  3055
484.1  3059.5833
484  3072.5
483.9  3028.75
483.8  3013.75
483.7  3072.9167
483.6  3090
483.5  3019.1667
483.4  3076.25
483.3  3080.8333
483.2  3060.8333
483.1  3101.6667
483  3115.8333
482.9  2997.5
482.8  3091.25
482.7  3007.5
482.6  2984.5833
482.5  3120
482.4  3025.8333
482.3  3112.9167
482.2  3051.6667
482.1  3106.25
482  3074.5833
481.9  3090.4167
481.8  3043.3333
481.7  3049.1667
481.6  3112.0833
481.5  3075
481.4  3130.8333
481.3  3071.6667
481.2  3113.75
481.1  3138.75
481  3144.5833
480.9  3105.8333
480.8  3092.0833
480.7  3170.8333
480.6  3070.8333
480.5  3136.6667
480.4  3144.5833
480.3  3147.0833
480.2  3154.1667
480.1  3134.1667
480  3120.8333

# Region:            Ba3d
# Acquisition Date:  08/26/22 12:04:14 UTC
# Analysis Method:   XPS
# Analyzer:          Phoibos 100 R6
# Analyzer Lens:     LargeArea:1.5kV
# Analyzer Slit:     1:0.2x20\B:open
# Scan Mode:         FixedAnalyzerTransmission
# Curves/Scan:       1
# Values/Curve:      121
# Dwell Time:        0.8
# Excitation Energy: 1486.61
# Binding Energy:    789
# Pass Energy:       30
# Bias Voltage:      90
# Detector Voltage:  2600
# Eff. Workfunction: 4.309
# Source:            X-Ray Dummy
# Comment:           
#
# Cycle: 0
# Number of Scans: 14
#
# Cycle: 0, Curve: 0
# Acquisition Date: 08/26/22 12:04:14 UTC
#
# ColumnLabels: energy counts/s
#
789  5770.625
788.9  5778.6607
788.8  5724.8214
788.7  5800.4464
788.6  5730.1786
788.5  5767.6786
788.4  5834.9107
788.3  5851.0714
788.2  5845.9821
788.1  5866.5179
788  5906.875
787.9  5973.2143
787.8  5979.0179
787.7  6013.6607
787.6  6026.6964
787.5  6064.1071
787.4  6080.625
787.3  6157.5
787.2  6152.9464
787.1  6148.125
787  6137.8571
786.9  6197.8571
786.8  6146.0714
786.7  6172.5893
786.6  6173.75
786.5  6223.75
786.4  6200.4464
786.3  6206.1607
786.2  6229.9107
786.1  6244.8214
786  6224.375
785.9  6284.4643
785.8  6246.7857
785.7  6263.3036
785.6  6286.7857
785.5  6293.75
785.4  6310.3571
785.3  6327.6786
785.2  6340.8036
785.1  6397.9464
785  6402.1429
784.9  6371.6964
784.8  6394.0179
784.7  6435.8929
784.6  6454.5536
784.5  6485.0893
784.4  6496.6964
784.3  6539.1071
784.2  6598.5714
784.1  6687.9464
784  6749.8214
783.9  6880.2679
783.8  7060.0893
783.7  7268.3036
783.6  7463.75
783.5  7758.3036
783.4  8079.0179
783.3  8431.7857
783.2  8845.8036
783.1  9386.6071
783  9840
782.9  10422.857
782.8  11030.625
782.7  11712.5
782.6  12379.554
782.5  13063.214
782.4  13769.464
782.3  14478.482
782.2  15126.607
782.1  15781.429
782  16257.768
781.9  16651.964
781.8  16946.161
781.7  17091.161
781.6  17125.982
781.5  16956.964
781.4  16657.054
781.3  16229.375
781.2  15708.661
781.1  15115.179
781  14307.321
780.9  13576.696
780.8  12878.482
780.7  12022.5
780.6  11256.696
780.5  10525.089
780.4  9834.2857
780.3  9241.5179
780.2  8612.1429
780.1  7913.3929
780  7685.8036
779.9  7459.1071
779.8  7085.5357
779.7  6843.4821
779.6  6629.1964
779.5  6417.5
779.4  6198.3929
779.3  6085.7143
779.2  5980
779.1  5876.6964
779  5812.9464
778.9  5709.6429
778.8  5688.0357
778.7  5606.875
778.6  5577.7679
778.5  5525
778.4  5468.125
778.3  5441.0714
778.2  5370.625
778.1  5360.2679
778  5332.8571
777.9  5327.8571
777.8  5294.2857
777.7  5237.3214
777.6  5249.2857
777.5  5241.1607
777.4  5265.4464
777.3  5214.9107
777.2  5219.1071
777.1  5186.25
777  5151.7857

# Region:            Cl2p
# Acquisition Date:  08/26/22 12:05:45 UTC
# Analysis Method:   XPS
# Analyzer:          Phoibos 100 R6
# Analyzer Lens:     LargeArea:1.5kV
# Analyzer Slit:     1:0.2x20\B:open
# Scan Mode:         FixedAnalyzerTransmission
# Curves/Scan:       1
# Values/Curve:      111
# Dwell Time:        0.8
# Excitation Energy: 1486.61
# Binding Energy:    207
# Pass Energy:       30
# Bias Voltage:      90
# Detector Voltage:  2600
# Eff. Workfunction: 4.309
# Source:            X-Ray Dummy
# Comment:           
#
# Cycle: 0
# Number of Scans: 14
#
# Cycle: 0, Curve: 0
# Acquisition Date: 08/26/22 12:05:45 UTC
#
# ColumnLabels: energy counts/s
#
207  1073.3929
206.9  1060.0893
206.8  1054.9107
206.7  1067.5893
206.6  1057.7679
206.5  1055
206.4  1054.8214
206.3  1075.8929
206.2  1061.7857
206.1  1078.8393
206  1062.8571
205.9  1044.5536
205.8  1066.25
205.7  1073.0357
205.6  1079.6429
205.5  1077.4107
205.4  1095
205.3  1071.5179
205.2  1063.9286
205.1  1083.4821
205  1075.5357
204.9  1074.6429
204.8  1072.4107
204.7  1084.8214
204.6  1060.3571
204.5  1074.8214
204.4  1073.75
204.3  1086.9643
204.2  1081.7857
204.1  1078.9286
204  1078.6607
203.9  1085.0893
203.8  1090.2679
203.7  1106.875
203.6  1096.25
203.5  1096.875
203.4  1108.4821
203.3  1107.5
203.2  1112.1429
203.1  1109.4643
203  1145.3571
202.9  1121.6964
202.8  1151.9643
202.7  1165.3571
202.6  1170.9821
202.5  1190.8929
202.4  1207.5
202.3  1244.7321
202.2  1260.3571
202.1  1298.3036
202  1329.5536
201.9  1378.4821
201.8  1393.9286
201.7  1446.1607
201.6  1473.4821
201.5  1535.7143
201.4  1568.3036
201.3  1615.8036
201.2  1650
201.1  1664.6429
201  1701.0714
200.9  1722.3214
200.8  1742.8571
200.7  1777.2321
200.6  1791.7857
200.5  1814.5536
200.4  1855.0893
200.3  1853.75
200.2  1880
200.1  1942.3214
200  1950.8929
199.9  1992.3214
199.8  2022.7679
199.7  1985.4464
199.6  2024.1964
199.5  2037.5
199.4  2015.3571
199.3  2024.2857
199.2  1958.3929
199.1  1922.7679
199  1870.5357
198.9  1806.4286
198.8  1730.1786
198.7  1651.6964
198.6  1586.0714
198.5  1496.4286
198.4  1397.7679
198.3  1374.375
198.2  1280.9821
198.1  1235.8036
198  1224.6429
197.9  1182.8571
197.8  1135.1786
197.7  1110.8929
197.6  1095.8929
197.5  1090.625
197.4  1072.2321
197.3  1060.3571
197.2  1056.0714
197.1  1051.4286
197  1047.5893
196.9  1046.3393
196.8  1052.5
196.7  1035.8929
196.6  1018.3036
196.5  1014.0179
196.4  1038.6607
196.3  1026.0714
196.2  1021.25
196.1  1038.6607
196  1025.1786

# Group:             overview_HD
#
# Region:            overview
# Acquisition Date:  08/26/22 16:03:39 UTC
# Analysis Method:   XPS
# Analyzer:          Phoibos 100 R6
# Analyzer Lens:     LargeArea:1.5kV
# Analyzer Slit:     1:0.2x20\B:open
# Scan Mode:         FixedAnalyzerTransmission
# Curves/Scan:       1
# Values/Curve:      6021
# Dwell Time:        0.4
# Excitation Energy: 1486.61
# Binding Energy:    1200
# Pass Energy:       30
# Bias Voltage:      90
# Detector Voltage:  2600
# Eff. Workfunction: 4.309
# Source:            X-Ray Dummy
# Comment:           
#
# Cycle: 0
# Number of Scans: 2
#
# Cycle: 0, Curve: 0
# Acquisition Date: 08/26/22 16:03:39 UTC
#
# ColumnLabels: energy counts/s
#
1200  9585
1199.8  9686.25
1199.6  9838.75
1199.4  9870
1199.2  9661.25
1199  9686.25
1198.8  9776.25
1198.6  9771.25
1198.4  10007.5
1198.2  9711.25
1198  9842.5
1197.8  9856.25
1197.6  9770
1197.4  9795
1197.2  9878.75
1197  9818.75
1196.8  9897.5
1196.6  9886.25
1196.4  9961.25
1196.2  9875
1196  9716.25
1195.8  9783.75
1195.6  9867.5
1195.4  9726.25
1195.2  9872.5
1195  9928.75
1194.8  9805
1194.6  10012.5
1194.4  9858.75
1194.2  9955
1194  9810
1193.8  9741.25
1193.6  9747.5
1193.4  9777.5
1193.2  9673.75
1193  9937.5
1192.8  9781.25
1192.6  9743.75
1192.4  9701.25
1192.2  9875
1192  9775
1191.8  9901.25
1191.6  9846.25
1191.4  9780
1191.2  9872.5
1191  9792.5
1190.8  9813.75
1190.6  9762.5
1190.4  9883.75
1190.2  9766.25
1190  9618.75
1189.8  9825
1189.6  9835
1189.4  9735
1189.2  9766.25
1189  9873.75
1188.8  9711.25
1188.6  9620
1188.4  9617.5
1188.2  9875
1188  9717.5
1187.8  9825
1187.6  9620
1187.4  9772.5
1187.2  9881.25
1187  9673.75
1186.8  9713.75
1186.6  9870
1186.4  9365
1186.2  9780
1186  9811.25
1185.8  9780
1185.6  9681.25
1185.4  9656.25
1185.2  9835
1185  9760
1184.8  9923.75
1184.6  9730
1184.4  9762.5
1184.2  9797.5
1184  9815
1183.8  9681.25
1183.6  9635
1183.4  9886.25
1183.2  9757.5
1183  9727.5
1182.8  9511.25
1182.6  9718.75
1182.4  9757.5
1182.2  9700
1182  9826.25
1181.8  9702.5
1181.6  9645
1181.4  9748.75
1181.2  9616.25
1181  9625
1180.8  9556.25
1180.6  9691.25
1180.4  9607.5
1180.2  9472.5
1180  9688.75
1179.8  9806.25
1179.6  9785
1179.4  9801.25
1179.2  9477.5
1179  9508.75
1178.8  10101.25
1178.6  9706.25
1178.4  9698.75
1178.2  9618.75
1178  9648.75
1177.8  9692.5
1177.6  9620
1177.4  9662.5
1177.2  9522.5
1177  9567.5
1176.8  9643.75
1176.6  9586.25
1176.4  9616.25
1176.2  9547.5
1176  9535
1175.8  9595
1175.6  9756.25
1175.4  9758.75
1175.2  9702.5
1175  9573.75
1174.8  9683.75
1174.6  9630
1174.4  9507.5
1174.2  9606.25
1174  9823.75
1173.8  9541.25
1173.6  9586.25
1173.4  9562.5
1173.2  9602.5
1173  9722.5
1172.8  9750
1172.6  9635
1172.4  9556.25
1172.2  9515
1172  9736.25
1171.8  9747.5
1171.6  9487.5
1171.4  9570
1171.2  9591.25
1171  9405
1170.8  9665
1170.6  9780
1170.4  9548.75
1170.2  9525
1170  9617.5
1169.8  9548.75
1169.6  9736.25
1169.4  9558.75
1169.2  9458.75
1169  9498.75
1168.8  9536.25
1168.6  9571.25
1168.4  9787.5
1168.2  9611.25
1168  9646.25
1167.8  9578.75
1167.6  9661.25
1167.4  9558.75
1167.2  9632.5
1167  9618.75
1166.8  9625
1166.6  9667.5
1166.4  9493.75
1166.2  9633.75
1166  9488.75
1165.8  9410
1165.6  9396.25
1165.4  9461.25
1165.2  9678.75
1165  9533.75
1164.8  9528.75
1164.6  9436.25
1164.4  9546.25
1164.2  9778.75
1164  9475
1163.8  9583.75
1163.6  9740
1163.4  9363.75
1163.2  9365
1163  9608.75
1162.8  9697.5
1162.6  9545
1162.4  9840
1162.2  9381.25
1162  9745
1161.8  9546.25
1161.6  9592.5
1161.4  9430
1161.2  9660
1161  9482.5
1160.8  9412.5
1160.6  9616.25
1160.4  9517.5
1160.2  9638.75
1160  9360
1159.8  9365
1159.6  9542.5
1159.4  9655
1159.2  9408.75
1159  9507.5
1158.8  9551.25
1158.6  9385
1158.4  9461.25
1158.2  9537.5
1158  9472.5
1157.8  9572.5
1157.6  9522.5
1157.4  9493.75
1157.2  9345
1157  9497.5
1156.8  9486.25
1156.6  9507.5
1156.4  9646.25
1156.2  9497.5
1156  9195
1155.8  9448.75
1155.6  9553.75
1155.4  9230
1155.2  9311.25
1155  9497.5
1154.8  9401.25
1154.6  9311.25
1154.4  9433.75
1154.2  9510
1154  9382.5
1153.8  9411.25
1153.6  9300
1153.4  9636.25
1153.2  9480
1153  9402.5
1152.8  9317.5
1152.6  9251.25
1152.4  9556.25
1152.2  9352.5
1152  9286.25
1151.8  9595
1151.6  9358.75
1151.4  9496.25
1151.2  9416.25
1151  9273.75
1150.8  9187.5
1150.6  9638.75
1150.4  9411.25
1150.2  9497.5
1150  9263.75
1149.8  9282.5
1149.6  9396.25
1149.4  9402.5
1149.2  9268.75
1149  9317.5
1148.8  9606.25
1148.6  9373.75
1148.4  9516.25
1148.2  9527.5
1148  9406.25
1147.8  9321.25
1147.6  9213.75
1147.4  9211.25
1147.2  9360
1147  9690
1146.8  9348.75
1146.6  9132.5
1146.4  9233.75
1146.2  9293.75
1146  9485
1145.8  9501.25
1145.6  9247.5
1145.4  9301.25
1145.2  9267.5
1145  9321.25
1144.8  9415
1144.6  9213.75
1144.4  9281.25
1144.2  9470
1144  9303.75
1143.8  9396.25
1143.6  9388.75
1143.4  9483.75
1143.2  9475
1143  9297.5
1142.8  9341.25
1142.6  9210
1142.4  7713.75
1142.2  6667.5
1142  9116.25
1141.8  9412.5
1141.6  9658.75
1141.4  9452.5
1141.2  9620
1141  9392.5
1140.8  9338.75
1140.6  9706.25
1140.4  9662.5
1140.2  9565
1140  9757.5
1139.8  9496.25
1139.6  9847.5
1139.4  9782.5
1139.2  9856.25
1139  9866.25
1138.8  9751.25
1138.6  10018.75
1138.4  9720
1138.2  10018.75
1138  10050
1137.8  9858.75
1137.6  9915
1137.4  10081.25
1137.2  9988.75
1137  10153.75
1136.8  9840
1136.6  9973.75
1136.4  9875
1136.2  9668.75
1136  9708.75
1135.8  9798.75
1135.6  9458.75
1135.4  9506.25
1135.2  9292.5
1135  9472.5
1134.8  9207.5
1134.6  9297.5
1134.4  9332.5
1134.2  9222.5
1134  9228.75
1133.8  9251.25
1133.6  9091.25
1133.4  9201.25
1133.2  9071.25
1133  9026.25
1132.8  9128.75
1132.6  9108.75
1132.4  9342.5
1132.2  9127.5
1132  9002.5
1131.8  8931.25
1131.6  9105
1131.4  8908.75
1131.2  8898.75
1131  8912.5
1130.8  8880
1130.6  8853.75
1130.4  9041.25
1130.2  8937.5
1130  9052.5
1129.8  9061.25
1129.6  9043.75
1129.4  8763.75
1129.2  8970
1129  9047.5
1128.8  9055
1128.6  9142.5
1128.4  8885
1128.2  9093.75
1128  8693.75
1127.8  8925
1127.6  8920
1127.4  9048.75
1127.2  9027.5
1127  8950
1126.8  8981.25
1126.6  8836.25
1126.4  9011.25
1126.2  9041.25
1126  8758.75
1125.8  8910
1125.6  9042.5
1125.4  9046.25
1125.2  9068.75
1125  8940
1124.8  8866.25
1124.6  8788.75
1124.4  8845
1124.2  8992.5
1124  9131.25
1123.8  8813.75
1123.6  8637.5
1123.4  8806.25
1123.2  8725
1123  8815
1122.8  8925
1122.6  9026.25
1122.4  8780
1122.2  8908.75
1122  8716.25
1121.8  8900
1121.6  8950
1121.4  8855
1121.2  8868.75
1121  8806.25
1120.8  8933.75
1120.6  8858.75
1120.4  8857.5
1120.2  9076.25
1120  8828.75
1119.8  8931.25
1119.6  8971.25
1119.4  8893.75
1119.2  8783.75
1119  8673.75
1118.8  8912.5
1118.6  9040
1118.4  8732.5
1118.2  8887.5
1118  9021.25
1117.8  8992.5
1117.6  8986.25
1117.4  8866.25
1117.2  8940
1117  8772.5
1116.8  8765
1116.6  8911.25
1116.4  9131.25
1116.2  8823.75
1116  8985
1115.8  9032.5
1115.6  8990
1115.4  8755
1115.2  8840
1115  8867.5
1114.8  8993.75
1114.6  8997.5
1114.4  9035
1114.2  8783.75
1114  8976.25
1113.8  8780
1113.6  8821.25
1113.4  8903.75
1113.2  9061.25
1113  9031.25
1112.8  8947.5
1112.6  9111.25
1112.4  8858.75
1112.2  8897.5
1112  9066.25
1111.8  9130
1111.6  8812.5
1111.4  9037.5
1111.2  8866.25
1111  8816.25
1110.8  8993.75
1110.6  9167.5
1110.4  9035
1110.2  8860
1110  9108.75
1109.8  9043.75
1109.6  8761.25
1109.4  9020
1109.2  8850
1109  8842.5
1108.8  9031.25
1108.6  9008.75
1108.4  8890
1108.2  8927.5
1108  9102.5
1107.8  8913.75
1107.6  8927.5
1107.4  9131.25
1107.2  9148.75
1107  8991.25
1106.8  8866.25
1106.6  8870
1106.4  8857.5
1106.2  8992.5
1106  9145
1105.8  8842.5
1105.6  8938.75
1105.4  8868.75
1105.2  8970
1105  9022.5
1104.8  8846.25
1104.6  9080
1104.4  9007.5
1104.2  8986.25
1104  8897.5
1103.8  9221.25
1103.6  8987.5
1103.4  9010
1103.2  8752.5
1103  8732.5
1102.8  8690
1102.6  8841.25
1102.4  8805
1102.2  8898.75
1102  9047.5
1101.8  8791.25
1101.6  8910
1101.4  8878.75
1101.2  8742.5
1101  8857.5
1100.8  8873.75
1100.6  8785
1100.4  8755
1100.2  8775
1100  8732.5
1099.8  8916.25
1099.6  8803.75
1099.4  8747.5
1099.2  8815
1099  8908.75
1098.8  8843.75
1098.6  8815
1098.4  8752.5
1098.2  8745
1098  8793.75
1097.8  8590
1097.6  8728.75
1097.4  8647.5
1097.2  8770
1097  8778.75
1096.8  8668.75
1096.6  8627.5
1096.4  8873.75
1096.2  8871.25
1096  8768.75
1095.8  8633.75
1095.6  8713.75
1095.4  8832.5
1095.2  8655
1095  8797.5
1094.8  8760
1094.6  8643.75
1094.4  8651.25
1094.2  8861.25
1094  8726.25
1093.8  8811.25
1093.6  8733.75
1093.4  8692.5
1093.2  8553.75
1093  8775
1092.8  8670
1092.6  8756.25
1092.4  8886.25
1092.2  8953.75
1092  8662.5
1091.8  9152.5
1091.6  8813.75
1091.4  8621.25
1091.2  8787.5
1091  8800
1090.8  8895
1090.6  8802.5
1090.4  8910
1090.2  9056.25
1090  9053.75
1089.8  8948.75
1089.6  8990
1089.4  9177.5
1089.2  9312.5
1089  9242.5
1088.8  9185
1088.6  9413.75
1088.4  9285
1088.2  9328.75
1088  9448.75
1087.8  9453.75
1087.6  9411.25
1087.4  9523.75
1087.2  9325
1087  9741.25
1086.8  9421.25
1086.6  9447.5
1086.4  9693.75
1086.2  9526.25
1086  9361.25
1085.8  9476.25
1085.6  9478.75
1085.4  9433.75
1085.2  9252.5
1085  9296.25
1084.8  9227.5
1084.6  9275
1084.4  9110
1084.2  8921.25
1084  9095
1083.8  8973.75
1083.6  9010
1083.4  8698.75
1083.2  8801.25
1083  8898.75
1082.8  8971.25
1082.6  8831.25
1082.4  8640
1082.2  8915
1082  8781.25
1081.8  8782.5
1081.6  8837.5
1081.4  8696.25
1081.2  8793.75
1081  8747.5
1080.8  8831.25
1080.6  8835
1080.4  8892.5
1080.2  8647.5
1080  8876.25
1079.8  8845
1079.6  8766.25
1079.4  8711.25
1079.2  8743.75
1079  8710
1078.8  8898.75
1078.6  8662.5
1078.4  8513.75
1078.2  8546.25
1078  8521.25
1077.8  8531.25
1077.6  8600
1077.4  8385
1077.2  8431.25
1077  8248.75
1076.8  8298.75
1076.6  8318.75
1076.4  8187.5
1076.2  8256.25
1076  8252.5
1075.8  8382.5
1075.6  8115
1075.4  8106.25
1075.2  8291.25
1075  8170
1074.8  8225
1074.6  8136.25
1074.4  8111.25
1074.2  8091.25
1074  8195
1073.8  8161.25
1073.6  8043.75
1073.4  8056.25
1073.2  8106.25
1073  8230
1072.8  8065
1072.6  8112.5
1072.4  8120
1072.2  8181.25
1072  8130
1071.8  8195
1071.6  8247.5
1071.4  8107.5
1071.2  8050
1071  8357.5
1070.8  8021.25
1070.6  8055
1070.4  8160
1070.2  8387.5
1070  8083.75
1069.8  8301.25
1069.6  8132.5
1069.4  8218.75
1069.2  8315
1069  8396.25
1068.8  8326.25
1068.6  8348.75
1068.4  8598.75
1068.2  8462.5
1068  8493.75
1067.8  8640
1067.6  8790
1067.4  8748.75
1067.2  8840
1067  8732.5
1066.8  8878.75
1066.6  8893.75
1066.4  9318.75
1066.2  9218.75
1066  9298.75
1065.8  9383.75
1065.6  9398.75
1065.4  9650
1065.2  9548.75
1065  9672.5
1064.8  9552.5
1064.6  9696.25
1064.4  9682.5
1064.2  9787.5
1064  9751.25
1063.8  9627.5
1063.6  9678.75
1063.4  9828.75
1063.2  9641.25
1063  9651.25
1062.8  9808.75
1062.6  9365
1062.4  9321.25
1062.2  9223.75
1062  9111.25
1061.8  9253.75
1061.6  8991.25
1061.4  8816.25
1061.2  9073.75
1061  8761.25
1060.8  8537.5
1060.6  8695
1060.4  8445
1060.2  8386.25
1060  8380
1059.8  8447.5
1059.6  8255
1059.4  8165
1059.2  8000
1059  8163.75
1058.8  8095
1058.6  8025
1058.4  7956.25
1058.2  7793.75
1058  7852.5
1057.8  7798.75
1057.6  8016.25
1057.4  7700
1057.2  8006.25
1057  7862.5
1056.8  7930
1056.6  7780
1056.4  7665
1056.2  7776.25
1056  7732.5
1055.8  7677.5
1055.6  7887.5
1055.4  7860
1055.2  7710
1055  7710
1054.8  7827.5
1054.6  7715
1054.4  7868.75
1054.2  7643.75
1054  7688.75
1053.8  7830
1053.6  7741.25
1053.4  7873.75
1053.2  7746.25
1053  7836.25
1052.8  7692.5
1052.6  7650
1052.4  7627.5
1052.2  7597.5
1052  7663.75
1051.8  7511.25
1051.6  7635
1051.4  7656.25
1051.2  7532.5
1051  7461.25
1050.8  7463.75
1050.6  7616.25
1050.4  7505
1050.2  7633.75
1050  7331.25
1049.8  7348.75
1049.6  7286.25
1049.4  7282.5
1049.2  7412.5
1049  7262.5
1048.8  7402.5
1048.6  7346.25
1048.4  7245
1048.2  7248.75
1048  7273.75
1047.8  7342.5
1047.6  7222.5
1047.4  7226.25
1047.2  7403.75
1047  7206.25
1046.8  7360
1046.6  7268.75
1046.4  7320
1046.2  7302.5
1046  7285
1045.8  7046.25
1045.6  7257.5
1045.4  7143.75
1045.2  7263.75
1045  7218.75
1044.8  7088.75
1044.6  7117.5
1044.4  7186.25
1044.2  7137.5
1044  7202.5
1043.8  7132.5
1043.6  7152.5
1043.4  7265
1043.2  7091.25
1043  7208.75
1042.8  7158.75
1042.6  7185
1042.4  7362.5
1042.2  7195
1042  7165
1041.8  7203.75
1041.6  7150
1041.4  7176.25
1041.2  7400
1041  7007.5
1040.8  7163.75
1040.6  7220
1040.4  7328.75
1040.2  7290
1040  7283.75
1039.8  7158.75
1039.6  7281.25
1039.4  7167.5
1039.2  7211.25
1039  7228.75
1038.8  7171.25
1038.6  7025
1038.4  7362.5
1038.2  7191.25
1038  7152.5
1037.8  7186.25
1037.6  6958.75
1037.4  7137.5
1037.2  7151.25
1037  7280
1036.8  7312.5
1036.6  7311.25
1036.4  7193.75
1036.2  7147.5
1036  7198.75
1035.8  7257.5
1035.6  7110
1035.4  7371.25
1035.2  7377.5
1035  7465
1034.8  7280
1034.6  7190
1034.4  7250
1034.2  7228.75
1034  7206.25
1033.8  7336.25
1033.6  7192.5
1033.4  7236.25
1033.2  7368.75
1033  7267.5
1032.8  7360
1032.6  7387.5
1032.4  7352.5
1032.2  7251.25
1032  7353.75
1031.8  7300
1031.6  7411.25
1031.4  7370
1031.2  7245
1031  7432.5
1030.8  7428.75
1030.6  7493.75
1030.4  7456.25
1030.2  7551.25
1030  7407.5
1029.8  7636.25
1029.6  7468.75
1029.4  7530
1029.2  7345
1029  7383.75
1028.8  7473.75
1028.6  7403.75
1028.4  7308.75
1028.2  7402.5
1028  7516.25
1027.8  7471.25
1027.6  7392.5
1027.4  7308.75
1027.2  7360
1027  7387.5
1026.8  7378.75
1026.6  7440
1026.4  7595
1026.2  7348.75
1026  7275
1025.8  7416.25
1025.6  7156.25
1025.4  7326.25
1025.2  7410
1025  7378.75
1024.8  7483.75
1024.6  7466.25
1024.4  7457.5
1024.2  7316.25
1024  7408.75
1023.8  7316.25
1023.6  7493.75
1023.4  7460
1023.2  7380
1023  7372.5
1022.8  7367.5
1022.6  7480
1022.4  7445
1022.2  7323.75
1022  7332.5
1021.8  7388.75
1021.6  7466.25
1021.4  7408.75
1021.2  7167.5
1021  7247.5
1020.8  7333.75
1020.6  7407.5
1020.4  7331.25
1020.2  7246.25
1020  7465
1019.8  7448.75
1019.6  7415
1019.4  7390
1019.2  7503.75
1019  7215
1018.8  7453.75
1018.6  7392.5
1018.4  7286.25
1018.2  7266.25
1018  7386.25
1017.8  7427.5
1017.6  7318.75
1017.4  7265
1017.2  7362.5
1017  7307.5
1016.8  7295
1016.6  7377.5
1016.4  7302.5
1016.2  7250
1016  7263.75
1015.8  7382.5
1015.6  7266.25
1015.4  7275
1015.2  7336.25
1015  7415
1014.8  7453.75
1014.6  7526.25
1014.4  7433.75
1014.2  7473.75
1014  7197.5
1013.8  7351.25
1013.6  7413.75
1013.4  7342.5
1013.2  7325
1013  7488.75
1012.8  7400
1012.6  7313.75
1012.4  7437.5
1012.2  7418.75
1012  7591.25
1011.8  7387.5
1011.6  7537.5
1011.4  7422.5
1011.2  7422.5
1011  7416.25
1010.8  7328.75
1010.6  7191.25
1010.4  7430
1010.2  7420
1010  7358.75
1009.8  7455
1009.6  7438.75
1009.4  7440
1009.2  7212.5
1009  7445
1008.8  7430
1008.6  7512.5
1008.4  7305
1008.2  7460
1008  7641.25
1007.8  7546.25
1007.6  7356.25
1007.4  7411.25
1007.2  7435
1007  7510
1006.8  7505
1006.6  7616.25
1006.4  7456.25
1006.2  7456.25
1006  7350
1005.8  7475
1005.6  7320
1005.4  7245
1005.2  7553.75
1005  7342.5
1004.8  7321.25
1004.6  7230
1004.4  7293.75
1004.2  7196.25
1004  7370
1003.8  7217.5
1003.6  7482.5
1003.4  7383.75
1003.2  7405
1003  7307.5
1002.8  7242.5
1002.6  7438.75
1002.4  7332.5
1002.2  7368.75
1002  7218.75
1001.8  7432.5
1001.6  7267.5
1001.4  7332.5
1001.2  7367.5
1001  7425
1000.8  7288.75
1000.6  7297.5
1000.4  7376.25
1000.2  7532.5
1000  7358.75
999.8  7217.5
999.6  7342.5
999.4  7431.25
999.2  7473.75
999  7520
998.8  7418.75
998.6  7582.5
998.4  7373.75
998.2  7372.5
998  7422.5
997.8  7446.25
997.6  7488.75
997.4  7476.25
997.2  7446.25
997  7430
996.8  7400
996.6  7447.5
996.4  7555
996.2  7513.75
996  7421.25
995.8  7562.5
995.6  7557.5
995.4  7461.25
995.2  7428.75
995  7377.5
994.8  7337.5
994.6  7523.75
994.4  7161.25
994.2  7478.75
994  7477.5
993.8  7400
993.6  7216.25
993.4  7435
993.2  7501.25
993  7450
992.8  7397.5
992.6  7648.75
992.4  7451.25
992.2  7561.25
992  7483.75
991.8  7212.5
991.6  7481.25
991.4  7525
991.2  7770
991  7356.25
990.8  7551.25
990.6  7405
990.4  7528.75
990.2  7532.5
990  7275
989.8  7256.25
989.6  7302.5
989.4  7381.25
989.2  7331.25
989  7251.25
988.8  7287.5
988.6  7273.75
988.4  7112.5
988.2  7218.75
988  7158.75
987.8  6945
987.6  7235
987.4  7032.5
987.2  7155
987  7012.5
986.8  7177.5
986.6  7012.5
986.4  6871.25
986.2  7001.25
986  7080
985.8  6915
985.6  7171.25
985.4  6960
985.2  6787.5
985  6922.5
984.8  6776.25
984.6  6843.75
984.4  7037.5
984.2  6881.25
984  6975
983.8  6963.75
983.6  6810
983.4  6688.75
983.2  6781.25
983  6816.25
982.8  6937.5
982.6  6722.5
982.4  6951.25
982.2  6988.75
982  6843.75
981.8  6701.25
981.6  7025
981.4  7046.25
981.2  6693.75
981  6773.75
980.8  6841.25
980.6  6896.25
980.4  6916.25
980.2  6772.5
980  6862.5
979.8  6930
979.6  6993.75
979.4  6888.75
979.2  6857.5
979  6848.75
978.8  6821.25
978.6  6882.5
978.4  6817.5
978.2  6916.25
978  6883.75
977.8  6946.25
977.6  6897.5
977.4  6826.25
977.2  6837.5
977  6818.75
976.8  6968.75
976.6  6655
976.4  6871.25
976.2  6780
976  6893.75
975.8  6988.75
975.6  7087.5
975.4  6932.5
975.2  6943.75
975  6925
974.8  6980
974.6  6908.75
974.4  6901.25
974.2  6986.25
974  6877.5
973.8  6812.5
973.6  6690
973.4  6665
973.2  6562.5
973  6637.5
972.8  6761.25
972.6  6597.5
972.4  6531.25
972.2  6443.75
972  6550
971.8  6470
971.6  6297.5
971.4  6461.25
971.2  6455
971  6531.25
970.8  6297.5
970.6  6522.5
970.4  6237.5
970.2  6336.25
970  6463.75
969.8  6248.75
969.6  6302.5
969.4  6260
969.2  6416.25
969  6432.5
968.8  6267.5
968.6  6250
968.4  6297.5
968.2  6306.25
968  6267.5
967.8  6228.75
967.6  6228.75
967.4  6388.75
967.2  6222.5
967  6235
966.8  6328.75
966.6  6328.75
966.4  6376.25
966.2  6358.75
966  6165
965.8  6297.5
965.6  6315
965.4  6190
965.2  6268.75
965  6240
964.8  6171.25
964.6  6155
964.4  6213.75
964.2  6266.25
964  6177.5
963.8  6192.5
963.6  6165
963.4  6017.5
963.2  6226.25
963  6107.5
962.8  6058.75
962.6  6302.5
962.4  6135
962.2  6333.75
962  6232.5
961.8  6076.25
961.6  6203.75
961.4  6217.5
961.2  6226.25
961  6205
960.8  6432.5
960.6  6137.5
960.4  6187.5
960.2  6068.75
960  6230
959.8  6442.5
959.6  6193.75
959.4  6102.5
959.2  6016.25
959  6218.75
958.8  6168.75
958.6  6285
958.4  6167.5
958.2  6200
958  6322.5
957.8  6166.25
957.6  6140
957.4  6060
957.2  6178.75
957  6227.5
956.8  6240
956.6  6232.5
956.4  6345
956.2  6088.75
956  6198.75
955.8  6248.75
955.6  6266.25
955.4  6246.25
955.2  6303.75
955  6097.5
954.8  6120
954.6  6260
954.4  6226.25
954.2  6228.75
954  6348.75
953.8  6350
953.6  6175
953.4  6283.75
953.2  6263.75
953  6308.75
952.8  6202.5
952.6  6450
952.4  6362.5
952.2  6181.25
952  6322.5
951.8  6122.5
951.6  6202.5
951.4  6343.75
951.2  6360
951  6368.75
950.8  6238.75
950.6  6388.75
950.4  6288.75
950.2  6240
950  6163.75
949.8  6307.5
949.6  6380
949.4  6158.75
949.2  6357.5
949  6498.75
948.8  6320
948.6  6286.25
948.4  6261.25
948.2  6233.75
948  6178.75
947.8  6351.25
947.6  6191.25
947.4  6278.75
947.2  6390
947  6267.5
946.8  6277.5
946.6  6315
946.4  6317.5
946.2  6372.5
946  6318.75
945.8  6470
945.6  6251.25
945.4  6347.5
945.2  6448.75
945  6291.25
944.8  6613.75
944.6  6425
944.4  6521.25
944.2  6223.75
944  6353.75
943.8  6283.75
943.6  6386.25
943.4  6548.75
943.2  6437.5
943  6383.75
942.8  6395
942.6  6551.25
942.4  6247.5
942.2  6507.5
942  6430
941.8  6418.75
941.6  6353.75
941.4  6441.25
941.2  6513.75
941  6522.5
940.8  6493.75
940.6  6488.75
940.4  6456.25
940.2  6526.25
940  6497.5
939.8  6506.25
939.6  6495
939.4  6572.5
939.2  6487.5
939  6468.75
938.8  6671.25
938.6  6598.75
938.4  6438.75
938.2  6356.25
938  6473.75
937.8  6582.5
937.6  6532.5
937.4  6427.5
937.2  6671.25
937  6512.5
936.8  6603.75
936.6  6448.75
936.4  6423.75
936.2  6650
936  6641.25
935.8  6555
935.6  6496.25
935.4  6611.25
935.2  6572.5
935  6651.25
934.8  6642.5
934.6  6701.25
934.4  6678.75
934.2  6616.25
934  6557.5
933.8  6767.5
933.6  6798.75
933.4  6665
933.2  6723.75
933  6488.75
932.8  6692.5
932.6  6716.25
932.4  6647.5
932.2  6642.5
932  6755
931.8  6740
931.6  6662.5
931.4  6707.5
931.2  6721.25
931  6791.25
930.8  6553.75
930.6  6778.75
930.4  6555
930.2  6877.5
930  6805
929.8  6687.5
929.6  6750
929.4  6742.5
929.2  6726.25
929  6837.5
928.8  6768.75
928.6  6747.5
928.4  6753.75
928.2  6841.25
928  6883.75
927.8  6865
927.6  6828.75
927.4  6967.5
927.2  6971.25
927  6890
926.8  6975
926.6  6792.5
926.4  6966.25
926.2  7006.25
926  6855
925.8  6832.5
925.6  6685
925.4  6873.75
925.2  6878.75
925  6960
924.8  6720
924.6  6721.25
924.4  7001.25
924.2  6816.25
924  6812.5
923.8  6971.25
923.6  6948.75
923.4  6951.25
923.2  6856.25
923  6985
922.8  6890
922.6  7006.25
922.4  6946.25
922.2  7116.25
922  6945
921.8  7031.25
921.6  7032.5
921.4  6911.25
921.2  6917.5
921  6957.5
920.8  7006.25
920.6  6971.25
920.4  6892.5
920.2  7001.25
920  6943.75
919.8  7057.5
919.6  7105
919.4  6868.75
919.2  7118.75
919  6935
918.8  7048.75
918.6  6961.25
918.4  7145
918.2  7022.5
918  6990
917.8  7071.25
917.6  7016.25
917.4  7062.5
917.2  7185
917  7155
916.8  7035
916.6  7297.5
916.4  7200
916.2  7433.75
916  7285
915.8  7140
915.6  7237.5
915.4  7203.75
915.2  7122.5
915  7275
914.8  7232.5
914.6  7293.75
914.4  7492.5
914.2  7276.25
914  7417.5
913.8  7261.25
913.6  7623.75
913.4  7430
913.2  7565
913  7423.75
912.8  7366.25
912.6  7537.5
912.4  7416.25
912.2  7513.75
912  7555
911.8  7290
911.6  7375
911.4  7388.75
911.2  7412.5
911  7422.5
910.8  7651.25
910.6  7615
910.4  7580
910.2  7517.5
910  7547.5
909.8  7618.75
909.6  7647.5
909.4  7813.75
909.2  7716.25
909  7831.25
908.8  7582.5
908.6  7812.5
908.4  7855
908.2  8025
908  8026.25
907.8  8127.5
907.6  8162.5
907.4  8287.5
907.2  8426.25
907  8283.75
906.8  8583.75
906.6  8543.75
906.4  8581.25
906.2  8481.25
906  8581.25
905.8  8667.5
905.6  8626.25
905.4  8587.5
905.2  8800
905  8597.5
904.8  8976.25
904.6  8866.25
904.4  8655
904.2  8605
904  8632.5
903.8  8767.5
903.6  8583.75
903.4  8962.5
903.2  8715
903  8857.5
902.8  8658.75
902.6  8751.25
902.4  8738.75
902.2  8661.25
902  8678.75
901.8  8703.75
901.6  8645
901.4  8660
901.2  8583.75
901  8557.5
900.8  8533.75
900.6  8446.25
900.4  8315
900.2  8055
900  8058.75
899.8  8187.5
899.6  8070
899.4  7975
899.2  7875
899  7818.75
898.8  7788.75
898.6  7798.75
898.4  7843.75
898.2  7578.75
898  7661.25
897.8  7656.25
897.6  7612.5
897.4  7496.25
897.2  7393.75
897  7521.25
896.8  7251.25
896.6  7328.75
896.4  7240
896.2  7351.25
896  7273.75
895.8  7261.25
895.6  7307.5
895.4  7242.5
895.2  7141.25
895  7147.5
894.8  7115
894.6  6972.5
894.4  6910
894.2  6951.25
894  7097.5
893.8  7133.75
893.6  7145
893.4  7073.75
893.2  7375
893  7430
892.8  7320
892.6  7505
892.4  7551.25
892.2  7702.5
892  7686.25
891.8  7658.75
891.6  7730
891.4  7690
891.2  7832.5
891  7900
890.8  7722.5
890.6  7376.25
890.4  7581.25
890.2  7707.5
890  7428.75
889.8  7491.25
889.6  7565
889.4  7178.75
889.2  7333.75
889  7276.25
888.8  7392.5
888.6  7081.25
888.4  7187.5
888.2  6925
888  6927.5
887.8  6977.5
887.6  6930
887.4  6868.75
887.2  6738.75
887  6687.5
886.8  6522.5
886.6  6347.5
886.4  6433.75
886.2  6382.5
886  6262.5
885.8  6337.5
885.6  6161.25
885.4  6326.25
885.2  6281.25
885  6191.25
884.8  6158.75
884.6  6156.25
884.4  6180
884.2  6028.75
884  6086.25
883.8  6015
883.6  6088.75
883.4  6071.25
883.2  5957.5
883  5982.5
882.8  5957.5
882.6  5890
882.4  5816.25
882.2  5840
882  5913.75
881.8  5771.25
881.6  5891.25
881.4  5845
881.2  5823.75
881  5837.5
880.8  5763.75
880.6  5726.25
880.4  5668.75
880.2  5603.75
880  5618.75
879.8  5637.5
879.6  5761.25
879.4  5687.5
879.2  5805
879  5707.5
878.8  5675
878.6  5520
878.4  5655
878.2  5561.25
878  5550
877.8  5592.5
877.6  5706.25
877.4  5732.5
877.2  5661.25
877  5561.25
876.8  5608.75
876.6  5572.5
876.4  5760
876.2  5450
876  5541.25
875.8  5640
875.6  5595
875.4  5623.75
875.2  5656.25
875  5668.75
874.8  5505
874.6  5517.5
874.4  5602.5
874.2  5522.5
874  5622.5
873.8  5602.5
873.6  5603.75
873.4  5511.25
873.2  5412.5
873  5501.25
872.8  5522.5
872.6  5522.5
872.4  5647.5
872.2  5625
872  5551.25
871.8  5581.25
871.6  5413.75
871.4  5536.25
871.2  5632.5
871  5371.25
870.8  5596.25
870.6  5432.5
870.4  5575
870.2  5536.25
870  5491.25
869.8  5738.75
869.6  5512.5
869.4  5596.25
869.2  5563.75
869  5510
868.8  5668.75
868.6  5573.75
868.4  5626.25
868.2  5607.5
868  5667.5
867.8  5630
867.6  5648.75
867.4  5713.75
867.2  5513.75
867  5551.25
866.8  5522.5
866.6  5571.25
866.4  5491.25
866.2  5660
866  5495
865.8  5796.25
865.6  5675
865.4  5682.5
865.2  5493.75
865  5422.5
864.8  5490
864.6  5627.5
864.4  5650
864.2  5603.75
864  5521.25
863.8  5587.5
863.6  5661.25
863.4  5851.25
863.2  5627.5
863  5545
862.8  5622.5
862.6  5370
862.4  5630
862.2  5613.75
862  5583.75
861.8  5595
861.6  5425
861.4  5503.75
861.2  5532.5
861  5600
860.8  5680
860.6  5507.5
860.4  5722.5
860.2  5552.5
860  5512.5
859.8  5670
859.6  5833.75
859.4  5552.5
859.2  5692.5
859  5638.75
858.8  5476.25
858.6  5663.75
858.4  5717.5
858.2  5513.75
858  5581.25
857.8  5630
857.6  5692.5
857.4  5775
857.2  5672.5
857  5666.25
856.8  5686.25
856.6  5825
856.4  5717.5
856.2  5753.75
856  5721.25
855.8  5722.5
855.6  5667.5
855.4  5520
855.2  5551.25
855  5696.25
854.8  5717.5
854.6  5677.5
854.4  5563.75
854.2  5690
854  5715
853.8  5471.25
853.6  5570
853.4  5822.5
853.2  5607.5
853  5503.75
852.8  5707.5
852.6  5571.25
852.4  5775
852.2  5653.75
852  5736.25
851.8  5748.75
851.6  5658.75
851.4  5642.5
851.2  5725
851  5605
850.8  5657.5
850.6  5662.5
850.4  5643.75
850.2  5643.75
850  5823.75
849.8  5795
849.6  5736.25
849.4  5895
849.2  5706.25
849  5655
848.8  5827.5
848.6  5857.5
848.4  5721.25
848.2  5735
848  5648.75
847.8  5660
847.6  5805
847.4  5827.5
847.2  5730
847  5656.25
846.8  5853.75
846.6  5772.5
846.4  5865
846.2  5908.75
846  5783.75
845.8  5875
845.6  5871.25
845.4  5745
845.2  5898.75
845  5745
844.8  5617.5
844.6  5805
844.4  5808.75
844.2  5760
844  5780
843.8  5686.25
843.6  5906.25
843.4  5837.5
843.2  6023.75
843  5753.75
842.8  5798.75
842.6  5781.25
842.4  5681.25
842.2  5808.75
842  5950
841.8  5901.25
841.6  5790
841.4  5900
841.2  5760
841  5838.75
840.8  5922.5
840.6  5725
840.4  6065
840.2  5868.75
840  5838.75
839.8  5961.25
839.6  5965
839.4  5937.5
839.2  5962.5
839  5907.5
838.8  5845
838.6  5953.75
838.4  6011.25
838.2  5888.75
838  5918.75
837.8  5930
837.6  5898.75
837.4  6107.5
837.2  5997.5
837  5970
836.8  5913.75
836.6  5892.5
836.4  5823.75
836.2  5837.5
836  5893.75
835.8  5802.5
835.6  6100
835.4  5967.5
835.2  6086.25
835  6127.5
834.8  5980
834.6  6080
834.4  5960
834.2  6100
834  6103.75
833.8  6138.75
833.6  5988.75
833.4  5976.25
833.2  6027.5
833  5911.25
832.8  6102.5
832.6  6106.25
832.4  5875
832.2  5787.5
832  6155
831.8  6002.5
831.6  6072.5
831.4  6287.5
831.2  6080
831  6046.25
830.8  6198.75
830.6  6188.75
830.4  6227.5
830.2  6181.25
830  6007.5
829.8  6228.75
829.6  6071.25
829.4  6187.5
829.2  6362.5
829  6317.5
828.8  6312.5
828.6  6277.5
828.4  6200
828.2  6108.75
828  6217.5
827.8  6163.75
827.6  6092.5
827.4  6220
827.2  6305
827  6323.75
826.8  6286.25
826.6  6268.75
826.4  6395
826.2  6248.75
826  6095
825.8  6506.25
825.6  6158.75
825.4  6466.25
825.2  6152.5
825  6361.25
824.8  6351.25
824.6  6340
824.4  6466.25
824.2  6488.75
824  6351.25
823.8  6506.25
823.6  6333.75
823.4  6456.25
823.2  6463.75
823  6431.25
822.8  6546.25
822.6  6422.5
822.4  6556.25
822.2  6361.25
822  6583.75
821.8  6753.75
821.6  6445
821.4  6548.75
821.2  6508.75
821  6505
820.8  6627.5
820.6  6636.25
820.4  6662.5
820.2  6710
820  6471.25
819.8  6563.75
819.6  6398.75
819.4  6543.75
819.2  6602.5
819  6446.25
818.8  6527.5
818.6  6383.75
818.4  6415
818.2  6272.5
818  6356.25
817.8  6435
817.6  6256.25
817.4  6290
817.2  6250
817  6415
816.8  6270
816.6  6195
816.4  6195
816.2  6135
816  6278.75
815.8  6202.5
815.6  6075
815.4  6243.75
815.2  6018.75
815  6137.5
814.8  6268.75
814.6  6161.25
814.4  6103.75
814.2  6152.5
814  6346.25
813.8  6258.75
813.6  6202.5
813.4  6187.5
813.2  6251.25
813  6360
812.8  6246.25
812.6  6156.25
812.4  6051.25
812.2  6326.25
812  6421.25
811.8  6347.5
811.6  6318.75
811.4  6517.5
811.2  6385
811  6261.25
810.8  6402.5
810.6  6216.25
810.4  6440
810.2  6416.25
810  6285
809.8  6432.5
809.6  6522.5
809.4  6521.25
809.2  6488.75
809  6646.25
808.8  6608.75
808.6  6530
808.4  6565
808.2  6750
808  6671.25
807.8  6625
807.6  6698.75
807.4  6867.5
807.2  6836.25
807  6690
806.8  6865
806.6  6875
806.4  6928.75
806.2  6910
806  6811.25
805.8  6816.25
805.6  6656.25
805.4  6722.5
805.2  6942.5
805  6720
804.8  6616.25
804.6  6582.5
804.4  6371.25
804.2  6311.25
804  6213.75
803.8  6038.75
803.6  6130
803.4  6266.25
803.2  6150
803  6021.25
802.8  6055
802.6  6168.75
802.4  6008.75
802.2  6208.75
802  6257.5
801.8  6248.75
801.6  6342.5
801.4  6436.25
801.2  6265
801  6397.5
800.8  6456.25
800.6  6431.25
800.4  6507.5
800.2  6483.75
800  6550
799.8  6521.25
799.6  6591.25
799.4  6857.5
799.2  7005
799  7353.75
798.8  7740
798.6  8205
798.4  9001.25
798.2  9628.75
798  10806.25
797.8  11723.75
797.6  12770
797.4  13775
797.2  14305
797  14293.75
796.8  14090
796.6  13380
796.4  12400
796.2  11492.5
796  10146.25
795.8  9225
795.6  8381.25
795.4  7692.5
795.2  7305
795  6865
794.8  6872.5
794.6  6418.75
794.4  6515
794.2  6390
794  6308.75
793.8  6058.75
793.6  6126.25
793.4  6130
793.2  6277.5
793  6086.25
792.8  6165
792.6  6073.75
792.4  6221.25
792.2  5977.5
792  6035
791.8  6282.5
791.6  6111.25
791.4  6227.5
791.2  6220
791  6110
790.8  6242.5
790.6  6095
790.4  6141.25
790.2  6000
790  5952.5
789.8  5822.5
789.6  5806.25
789.4  5672.5
789.2  5837.5
789  5796.25
788.8  5782.5
788.6  5911.25
788.4  5737.5
788.2  5812.5
788  6007.5
787.8  6010
787.6  6046.25
787.4  6128.75
787.2  6155
787  6261.25
786.8  6133.75
786.6  6035
786.4  6050
786.2  6198.75
786  6186.25
785.8  6211.25
785.6  6425
785.4  6262.5
785.2  6356.25
785  6361.25
784.8  6377.5
784.6  6421.25
784.4  6438.75
784.2  6586.25
784  6862.5
783.8  7280
783.6  7596.25
783.4  8298.75
783.2  9118.75
783  10263.75
782.8  11445
782.6  12532.5
782.4  14320
782.2  15238.75
782  16185
781.8  17125
781.6  16865
781.4  16345
781.2  15273.75
781  13962.5
780.8  12290
780.6  10790
780.4  9337.5
780.2  8381.25
780  7433.75
779.8  6926.25
779.6  6432.5
779.4  5993.75
779.2  5745
779  5658.75
778.8  5602.5
778.6  5616.25
778.4  5396.25
778.2  5358.75
778  5321.25
777.8  5365
777.6  5247.5
777.4  5308.75
777.2  5127.5
777  5266.25
776.8  5066.25
776.6  5086.25
776.4  5128.75
776.2  5083.75
776  5065
775.8  5150
775.6  4933.75
775.4  5082.5
775.2  5022.5
775  4995
774.8  4995
774.6  5040
774.4  5050
774.2  4990
774  5015
773.8  5083.75
773.6  5225
773.4  5213.75
773.2  5227.5
773  5340
772.8  5588.75
772.6  5471.25
772.4  5656.25
772.2  5748.75
772  5737.5
771.8  5661.25
771.6  5548.75
771.4  5597.5
771.2  5430
771  5547.5
770.8  5438.75
770.6  5466.25
770.4  5400
770.2  5267.5
770  5281.25
769.8  5237.5
769.6  5163.75
769.4  5153.75
769.2  5187.5
769  5022.5
768.8  4850
768.6  5038.75
768.4  5027.5
768.2  4955
768  4737.5
767.8  4660
767.6  4807.5
767.4  4733.75
767.2  4796.25
767  4850
766.8  4830
766.6  4705
766.4  4702.5
766.2  4786.25
766  4865
765.8  4771.25
765.6  4695
765.4  4767.5
765.2  4663.75
765  4826.25
764.8  4767.5
764.6  4716.25
764.4  4640
764.2  4736.25
764  4748.75
763.8  4697.5
763.6  4628.75
763.4  4753.75
763.2  4766.25
763  4685
762.8  4706.25
762.6  4703.75
762.4  4760
762.2  4642.5
762  4688.75
761.8  4725
761.6  4891.25
761.4  4891.25
761.2  4896.25
761  4753.75
760.8  4893.75
760.6  4848.75
760.4  4808.75
760.2  4832.5
760  4875
759.8  4918.75
759.6  4781.25
759.4  4850
759.2  4756.25
759  4881.25
758.8  4817.5
758.6  4902.5
758.4  4852.5
758.2  4602.5
758  4878.75
757.8  4763.75
757.6  4767.5
757.4  4710
757.2  4673.75
757  4707.5
756.8  4733.75
756.6  4766.25
756.4  4666.25
756.2  4695
756  4646.25
755.8  4703.75
755.6  4732.5
755.4  4601.25
755.2  4618.75
755  4690
754.8  4860
754.6  4711.25
754.4  4773.75
754.2  4796.25
754  4747.5
753.8  4670
753.6  4665
753.4  4775
753.2  4678.75
753  4735
752.8  4550
752.6  4682.5
752.4  4732.5
752.2  4770
752  4595
751.8  4780
751.6  4497.5
751.4  4653.75
751.2  4621.25
751  4791.25
750.8  4737.5
750.6  4628.75
750.4  4670
750.2  4736.25
750  4688.75
749.8  4610
749.6  4862.5
749.4  4701.25
749.2  4622.5
749  4692.5
748.8  4652.5
748.6  4587.5
748.4  4666.25
748.2  4601.25
748  4898.75
747.8  4563.75
747.6  4733.75
747.4  4687.5
747.2  4753.75
747  4586.25
746.8  4705
746.6  4676.25
746.4  4633.75
746.2  4583.75
746  4831.25
745.8  4691.25
745.6  4866.25
745.4  4745
745.2  4727.5
745  4770
744.8  4811.25
744.6  4766.25
744.4  4730
744.2  4765
744  4587.5
743.8  4597.5
743.6  4867.5
743.4  4730
743.2  4603.75
743  4660
742.8  4632.5
742.6  4620
742.4  4848.75
742.2  4635
742  4768.75
741.8  4635
741.6  4618.75
741.4  4736.25
741.2  4576.25
741  4691.25
740.8  4555
740.6  4878.75
740.4  4708.75
740.2  4722.5
740  4832.5
739.8  4595
739.6  4806.25
739.4  4580
739.2  4735
739  4840
738.8  4856.25
738.6  4722.5
738.4  4705
738.2  4741.25
738  4681.25
737.8  4682.5
737.6  4521.25
737.4  4788.75
737.2  4738.75
737  4532.5
736.8  4708.75
736.6  4633.75
736.4  4743.75
736.2  4691.25
736  4730
735.8  4817.5
735.6  4806.25
735.4  4707.5
735.2  4631.25
735  4658.75
734.8  4645
734.6  4682.5
734.4  4577.5
734.2  4677.5
734  4673.75
733.8  4741.25
733.6  4672.5
733.4  4717.5
733.2  4568.75
733  4657.5
732.8  4836.25
732.6  4601.25
732.4  4763.75
732.2  4722.5
732  4801.25
731.8  4818.75
731.6  4800
731.4  4693.75
731.2  4836.25
731  4625
730.8  4815
730.6  4758.75
730.4  4786.25
730.2  4688.75
730  4607.5
729.8  4783.75
729.6  4793.75
729.4  4798.75
729.2  4631.25
729  4741.25
728.8  4650
728.6  4841.25
728.4  4733.75
728.2  4665
728  4830
727.8  4721.25
727.6  4846.25
727.4  4958.75
727.2  4692.5
727  4915
726.8  4728.75
726.6  4835
726.4  4736.25
726.2  4773.75
726  4673.75
725.8  4651.25
725.6  4791.25
725.4  4813.75
725.2  4650
725  4697.5
724.8  4726.25
724.6  4741.25
724.4  4713.75
724.2  4670
724  4607.5
723.8  4625
723.6  4691.25
723.4  4772.5
723.2  4598.75
723  4476.25
722.8  4772.5
722.6  4730
722.4  4723.75
722.2  4692.5
722  4757.5
721.8  4755
721.6  4677.5
721.4  4678.75
721.2  4747.5
721  4678.75
720.8  4556.25
720.6  4723.75
720.4  4767.5
720.2  4662.5
720  4680
719.8  4592.5
719.6  4565
719.4  4716.25
719.2  4656.25
719  4655
718.8  4830
718.6  4738.75
718.4  4788.75
718.2  4807.5
718  4850
717.8  4772.5
717.6  4813.75
717.4  4825
717.2  4730
717  4782.5
716.8  4726.25
716.6  4575
716.4  4745
716.2  4640
716  4590
715.8  4617.5
715.6  4611.25
715.4  4930
715.2  4671.25
715  4708.75
714.8  4660
714.6  4743.75
714.4  4720
714.2  4571.25
714  4612.5
713.8  4661.25
713.6  4713.75
713.4  4561.25
713.2  4651.25
713  4666.25
712.8  4715
712.6  4535
712.4  4601.25
712.2  4667.5
712  4810
711.8  4655
711.6  4581.25
711.4  4485
711.2  4491.25
711  4590
710.8  4565
710.6  4653.75
710.4  4542.5
710.2  4662.5
710  4551.25
709.8  4467.5
709.6  4552.5
709.4  4587.5
709.2  4486.25
709  4595
708.8  4581.25
708.6  4705
708.4  4572.5
708.2  4645
708  4502.5
707.8  4610
707.6  4667.5
707.4  4852.5
707.2  4707.5
707  4783.75
706.8  4775
706.6  4901.25
706.4  4856.25
706.2  5028.75
706  5028.75
705.8  5088.75
705.6  5118.75
705.4  5177.5
705.2  5230
705  5271.25
704.8  5111.25
704.6  5287.5
704.4  5293.75
704.2  5187.5
704  5196.25
703.8  4965
703.6  5028.75
703.4  4956.25
703.2  5151.25
703  4940
702.8  4737.5
702.6  4766.25
702.4  4612.5
702.2  4607.5
702  4591.25
701.8  4518.75
701.6  4705
701.4  4723.75
701.2  4352.5
701  4495
700.8  4431.25
700.6  4510
700.4  4346.25
700.2  4431.25
700  4378.75
699.8  4438.75
699.6  4296.25
699.4  4251.25
699.2  4515
699  4235
698.8  4361.25
698.6  4406.25
698.4  4422.5
698.2  4452.5
698  4338.75
697.8  4265
697.6  4426.25
697.4  4277.5
697.2  4386.25
697  4371.25
696.8  4343.75
696.6  4406.25
696.4  4315
696.2  4506.25
696  4271.25
695.8  4347.5
695.6  4378.75
695.4  4368.75
695.2  4531.25
695  4370
694.8  4530
694.6  4382.5
694.4  4455
694.2  4366.25
694  4306.25
693.8  4476.25
693.6  4381.25
693.4  4496.25
693.2  4398.75
693  4357.5
692.8  4336.25
692.6  4385
692.4  4448.75
692.2  4200
692  4450
691.8  4415
691.6  4436.25
691.4  4326.25
691.2  4351.25
691  4352.5
690.8  4331.25
690.6  4390
690.4  4413.75
690.2  4416.25
690  4330
689.8  4467.5
689.6  4350
689.4  4247.5
689.2  4281.25
689  4381.25
688.8  4361.25
688.6  4226.25
688.4  4186.25
688.2  4232.5
688  4333.75
687.8  4282.5
687.6  4287.5
687.4  4300
687.2  4193.75
687  4178.75
686.8  4232.5
686.6  4417.5
686.4  4213.75
686.2  4347.5
686  4246.25
685.8  4298.75
685.6  4290
685.4  4250
685.2  4308.75
685  4273.75
684.8  4360
684.6  4166.25
684.4  4301.25
684.2  4175
684  4036.25
683.8  4126.25
683.6  4250
683.4  4286.25
683.2  4202.5
683  4191.25
682.8  4313.75
682.6  4195
682.4  4202.5
682.2  4037.5
682  4043.75
681.8  4173.75
681.6  4098.75
681.4  4117.5
681.2  4165
681  4150
680.8  4242.5
680.6  4131.25
680.4  4195
680.2  4153.75
680  4123.75
679.8  4053.75
679.6  4086.25
679.4  4177.5
679.2  4302.5
679  4180
678.8  4163.75
678.6  4242.5
678.4  4270
678.2  4192.5
678  4197.5
677.8  4266.25
677.6  3957.5
677.4  4006.25
677.2  4133.75
677  4085
676.8  4118.75
676.6  3912.5
676.4  4001.25
676.2  3906.25
676  4093.75
675.8  4086.25
675.6  3880
675.4  3965
675.2  3986.25
675  4093.75
674.8  3866.25
674.6  3936.25
674.4  4063.75
674.2  3852.5
674  3931.25
673.8  3978.75
673.6  3890
673.4  3836.25
673.2  3960
673  3835
672.8  4073.75
672.6  4032.5
672.4  4012.5
672.2  4070
672  3965
671.8  3967.5
671.6  4037.5
671.4  4050
671.2  4007.5
671  4056.25
670.8  4150
670.6  4248.75
670.4  4258.75
670.2  4232.5
670  4310
669.8  4343.75
669.6  4467.5
669.4  4373.75
669.2  4386.25
669  4615
668.8  4767.5
668.6  4807.5
668.4  4832.5
668.2  5013.75
668  5182.5
667.8  5120
667.6  5152.5
667.4  5412.5
667.2  5413.75
667  5418.75
666.8  5331.25
666.6  5302.5
666.4  5292.5
666.2  5375
666  5287.5
665.8  5227.5
665.6  5098.75
665.4  5000
665.2  4947.5
665  4673.75
664.8  4686.25
664.6  4560
664.4  4512.5
664.2  4343.75
664  4356.25
663.8  4183.75
663.6  4140
663.4  4037.5
663.2  4021.25
663  4087.5
662.8  4096.25
662.6  4047.5
662.4  3960
662.2  3823.75
662  3875
661.8  3922.5
661.6  3780
661.4  3771.25
661.2  3827.5
661  3797.5
660.8  3838.75
660.6  3793.75
660.4  3828.75
660.2  3687.5
660  3740
659.8  3673.75
659.6  3775
659.4  3863.75
659.2  3706.25
659  3658.75
658.8  3773.75
658.6  3747.5
658.4  3665
658.2  3687.5
658  3726.25
657.8  3748.75
657.6  3718.75
657.4  3815
657.2  3853.75
657  3826.25
656.8  3801.25
656.6  3663.75
656.4  3726.25
656.2  3867.5
656  3623.75
655.8  3753.75
655.6  3643.75
655.4  3657.5
655.2  3687.5
655  3810
654.8  3560
654.6  3908.75
654.4  3615
654.2  3623.75
654  3676.25
653.8  3697.5
653.6  3608.75
653.4  3542.5
653.2  3785
653  3593.75
652.8  3480
652.6  3527.5
652.4  3532.5
652.2  3586.25
652  3587.5
651.8  3613.75
651.6  3597.5
651.4  3520
651.2  3567.5
651  3692.5
650.8  3611.25
650.6  3660
650.4  3525
650.2  3563.75
650  3523.75
649.8  3498.75
649.6  3715
649.4  3536.25
649.2  3507.5
649  3590
648.8  3545
648.6  3528.75
648.4  3576.25
648.2  3577.5
648  3531.25
647.8  3526.25
647.6  3568.75
647.4  3505
647.2  3536.25
647  3621.25
646.8  3590
646.6  3610
646.4  3485
646.2  3438.75
646  3627.5
645.8  3553.75
645.6  3557.5
645.4  3442.5
645.2  3488.75
645  3545
644.8  3540
644.6  3568.75
644.4  3582.5
644.2  3533.75
644  3568.75
643.8  3428.75
643.6  3452.5
643.4  3447.5
643.2  3476.25
643  3436.25
642.8  3531.25
642.6  3522.5
642.4  3500
642.2  3548.75
642  3505
641.8  3511.25
641.6  3538.75
641.4  3542.5
641.2  3583.75
641  3483.75
640.8  3428.75
640.6  3465
640.4  3496.25
640.2  3388.75
640  3505
639.8  3393.75
639.6  3436.25
639.4  3476.25
639.2  3566.25
639  3450
638.8  3546.25
638.6  3538.75
638.4  3476.25
638.2  3463.75
638  3470
637.8  3505
637.6  3705
637.4  3516.25
637.2  3511.25
637  3423.75
636.8  3456.25
636.6  3600
636.4  3621.25
636.2  3513.75
636  3383.75
635.8  3493.75
635.6  3540
635.4  3562.5
635.2  3441.25
635  3505
634.8  3457.5
634.6  3450
634.4  3598.75
634.2  3392.5
634  3480
633.8  3517.5
633.6  3517.5
633.4  3451.25
633.2  3487.5
633  3441.25
632.8  3510
632.6  3498.75
632.4  3436.25
632.2  3551.25
632  3578.75
631.8  3498.75
631.6  3612.5
631.4  3403.75
631.2  3516.25
631  3500
630.8  3540
630.6  3488.75
630.4  3443.75
630.2  3500
630  3556.25
629.8  3538.75
629.6  3456.25
629.4  3452.5
629.2  3366.25
629  3428.75
628.8  3465
628.6  3471.25
628.4  3598.75
628.2  3538.75
628  3497.5
627.8  3321.25
627.6  3548.75
627.4  3448.75
627.2  3477.5
627  3538.75
626.8  3377.5
626.6  3437.5
626.4  3458.75
626.2  3422.5
626  3433.75
625.8  3376.25
625.6  3471.25
625.4  3515
625.2  3485
625  3558.75
624.8  3318.75
624.6  3437.5
624.4  3392.5
624.2  3406.25
624  3528.75
623.8  3526.25
623.6  3426.25
623.4  3582.5
623.2  3336.25
623  3472.5
622.8  3395
622.6  3492.5
622.4  3501.25
622.2  3552.5
622  3382.5
621.8  3493.75
621.6  3485
621.4  3371.25
621.2  3496.25
621  3520
620.8  3401.25
620.6  3360
620.4  3525
620.2  3482.5
620  3341.25
619.8  3435
619.6  3547.5
619.4  3342.5
619.2  3497.5
619  3435
618.8  3440
618.6  3522.5
618.4  3443.75
618.2  3482.5
618  3443.75
617.8  3485
617.6  3373.75
617.4  3417.5
617.2  3546.25
617  3496.25
616.8  3503.75
616.6  3461.25
616.4  3335
616.2  3407.5
616  3503.75
615.8  3380
615.6  3430
615.4  3453.75
615.2  3536.25
615  3448.75
614.8  3441.25
614.6  3460
614.4  3512.5
614.2  3472.5
614  3395
613.8  3443.75
613.6  3440
613.4  3416.25
613.2  3465
613  3406.25
612.8  3536.25
612.6  3520
612.4  3432.5
612.2  3448.75
612  3371.25
611.8  3453.75
611.6  3323.75
611.4  3563.75
611.2  3416.25
611  3527.5
610.8  3436.25
610.6  3478.75
610.4  3471.25
610.2  3438.75
610  3398.75
609.8  3438.75
609.6  3596.25
609.4  3427.5
609.2  3431.25
609  3487.5
608.8  3337.5
608.6  3545
608.4  3526.25
608.2  3408.75
608  3377.5
607.8  3410
607.6  3332.5
607.4  3426.25
607.2  3418.75
607  3462.5
606.8  3540
606.6  3386.25
606.4  3593.75
606.2  3536.25
606  3516.25
605.8  3427.5
605.6  3511.25
605.4  3451.25
605.2  3526.25
605  3425
604.8  3497.5
604.6  3350
604.4  3473.75
604.2  3458.75
604  3465
603.8  3422.5
603.6  3400
603.4  3470
603.2  3395
603  3473.75
602.8  3432.5
602.6  3502.5
602.4  3451.25
602.2  3481.25
602  3408.75
601.8  3502.5
601.6  3496.25
601.4  3463.75
601.2  3447.5
601  3463.75
600.8  3417.5
600.6  3632.5
600.4  3372.5
600.2  3536.25
600  3410
599.8  3375
599.6  3443.75
599.4  3533.75
599.2  3523.75
599  3611.25
598.8  3478.75
598.6  3550
598.4  3412.5
598.2  3423.75
598  3446.25
597.8  3436.25
597.6  3393.75
597.4  3513.75
597.2  3420
597  3595
596.8  3447.5
596.6  3593.75
596.4  3455
596.2  3476.25
596  3496.25
595.8  3480
595.6  3462.5
595.4  3416.25
595.2  3445
595  3507.5
594.8  3551.25
594.6  3433.75
594.4  3477.5
594.2  3443.75
594  3450
593.8  3448.75
593.6  3513.75
593.4  3512.5
593.2  3551.25
593  3412.5
592.8  3387.5
592.6  3490
592.4  3366.25
592.2  3545
592  3460
591.8  3406.25
591.6  3390
591.4  3428.75
591.2  3443.75
591  3368.75
590.8  3400
590.6  3466.25
590.4  3585
590.2  3338.75
590  3455
589.8  3443.75
589.6  3543.75
589.4  3347.5
589.2  3643.75
589  3422.5
588.8  3426.25
588.6  3515
588.4  3533.75
588.2  3387.5
588  3518.75
587.8  3397.5
587.6  3507.5
587.4  3347.5
587.2  3507.5
587  3468.75
586.8  3480
586.6  3450
586.4  3455
586.2  3522.5
586  3387.5
585.8  3446.25
585.6  3431.25
585.4  3632.5
585.2  3431.25
585  3482.5
584.8  3397.5
584.6  3358.75
584.4  3393.75
584.2  3447.5
584  3381.25
583.8  3387.5
583.6  3383.75
583.4  3442.5
583.2  3548.75
583  3383.75
582.8  3513.75
582.6  3475
582.4  3548.75
582.2  3487.5
582  3507.5
581.8  3483.75
581.6  3451.25
581.4  3368.75
581.2  3590
581  3442.5
580.8  3415
580.6  3483.75
580.4  3385
580.2  3456.25
580  3543.75
579.8  3358.75
579.6  3310
579.4  3298.75
579.2  3382.5
579  3473.75
578.8  3413.75
578.6  3360
578.4  3440
578.2  3421.25
578  3640
577.8  3401.25
577.6  3472.5
577.4  3463.75
577.2  3417.5
577  3542.5
576.8  3393.75
576.6  3552.5
576.4  3481.25
576.2  3312.5
576  3447.5
575.8  3488.75
575.6  3490
575.4  3496.25
575.2  3452.5
575  3418.75
574.8  3516.25
574.6  3490
574.4  3441.25
574.2  3455
574  3495
573.8  3805
573.6  3436.25
573.4  3361.25
573.2  3485
573  3421.25
572.8  3407.5
572.6  3332.5
572.4  3478.75
572.2  3406.25
572  3567.5
571.8  3468.75
571.6  3418.75
571.4  3562.5
571.2  3477.5
571  3486.25
570.8  3515
570.6  3366.25
570.4  3435
570.2  3435
570  3476.25
569.8  3431.25
569.6  3415
569.4  3508.75
569.2  3425
569  3407.5
568.8  3481.25
568.6  3622.5
568.4  3520
568.2  3482.5
568  3537.5
567.8  3471.25
567.6  3558.75
567.4  3552.5
567.2  3421.25
567  3451.25
566.8  3441.25
566.6  3457.5
566.4  3448.75
566.2  3535
566  3367.5
565.8  3370
565.6  3551.25
565.4  3457.5
565.2  3488.75
565  3423.75
564.8  3416.25
564.6  3462.5
564.4  3512.5
564.2  3427.5
564  3452.5
563.8  3457.5
563.6  3528.75
563.4  3407.5
563.2  3393.75
563  3456.25
562.8  3373.75
562.6  3572.5
562.4  3433.75
562.2  3498.75
562  3436.25
561.8  3391.25
561.6  3320
561.4  3558.75
561.2  3432.5
561  3405
560.8  3578.75
560.6  3336.25
560.4  3488.75
560.2  3491.25
560  3496.25
559.8  3377.5
559.6  3438.75
559.4  3517.5
559.2  3477.5
559  3551.25
558.8  3578.75
558.6  3621.25
558.4  3507.5
558.2  3396.25
558  3298.75
557.8  3517.5
557.6  3551.25
557.4  3343.75
557.2  3427.5
557  3496.25
556.8  3541.25
556.6  3513.75
556.4  3503.75
556.2  3431.25
556  3596.25
555.8  3415
555.6  3571.25
555.4  3440
555.2  3517.5
555  3517.5
554.8  3532.5
554.6  3475
554.4  3535
554.2  3670
554  3526.25
553.8  3541.25
553.6  3521.25
553.4  3437.5
553.2  3475
553  3462.5
552.8  3466.25
552.6  3520
552.4  3432.5
552.2  3513.75
552  3407.5
551.8  3522.5
551.6  3352.5
551.4  3406.25
551.2  3503.75
551  3463.75
550.8  3420
550.6  3451.25
550.4  3405
550.2  3331.25
550  3498.75
549.8  3432.5
549.6  3485
549.4  3507.5
549.2  3451.25
549  3511.25
548.8  3472.5
548.6  3435
548.4  3517.5
548.2  3520
548  3403.75
547.8  3585
547.6  3382.5
547.4  3433.75
547.2  3282.5
547  3320
546.8  3435
546.6  3455
546.4  3491.25
546.2  3425
546  3451.25
545.8  3342.5
545.6  3346.25
545.4  3407.5
545.2  3341.25
545  3336.25
544.8  3371.25
544.6  3323.75
544.4  3433.75
544.2  3388.75
544  3380
543.8  3327.5
543.6  3353.75
543.4  3330
543.2  3276.25
543  3378.75
542.8  3372.5
542.6  3398.75
542.4  3306.25
542.2  3245
542  3267.5
541.8  3238.75
541.6  3243.75
541.4  3221.25
541.2  3332.5
541  3236.25
540.8  3260
540.6  3196.25
540.4  3328.75
540.2  3303.75
540  3286.25
539.8  3277.5
539.6  3251.25
539.4  3256.25
539.2  3200
539  3310
538.8  3237.5
538.6  3273.75
538.4  3262.5
538.2  3172.5
538  3245
537.8  3157.5
537.6  3297.5
537.4  3171.25
537.2  3201.25
537  3321.25
536.8  3205
536.6  3350
536.4  3283.75
536.2  3230
536  3212.5
535.8  3203.75
535.6  3116.25
535.4  3148.75
535.2  3160
535  3342.5
534.8  3301.25
534.6  3237.5
534.4  3241.25
534.2  3478.75
534  3403.75
533.8  3411.25
533.6  3377.5
533.4  3577.5
533.2  3648.75
533  3575
532.8  3741.25
532.6  3727.5
532.4  3808.75
532.2  3973.75
532  4186.25
531.8  4215
531.6  4562.5
531.4  4697.5
531.2  4723.75
531  4868.75
530.8  4723.75
530.6  4651.25
530.4  4608.75
530.2  4348.75
530  4113.75
529.8  3912.5
529.6  3681.25
529.4  3513.75
529.2  3427.5
529  3282.5
528.8  3248.75
528.6  3176.25
528.4  3200
528.2  3043.75
528  3215
527.8  3178.75
527.6  3133.75
527.4  3113.75
527.2  3123.75
527  3236.25
526.8  3007.5
526.6  3138.75
526.4  3185
526.2  3088.75
526  3197.5
525.8  3107.5
525.6  3226.25
525.4  3150
525.2  3140
525  3076.25
524.8  3143.75
524.6  3111.25
524.4  3131.25
524.2  3116.25
524  3066.25
523.8  3180
523.6  3078.75
523.4  3063.75
523.2  3127.5
523  3203.75
522.8  3093.75
522.6  3077.5
522.4  3150
522.2  3202.5
522  3183.75
521.8  3186.25
521.6  3220
521.4  3203.75
521.2  3238.75
521  3137.5
520.8  3325
520.6  3180
520.4  3152.5
520.2  3275
520  3195
519.8  3310
519.6  3196.25
519.4  3171.25
519.2  3250
519  3161.25
518.8  3060
518.6  3062.5
518.4  3197.5
518.2  3102.5
518  3213.75
517.8  3081.25
517.6  3047.5
517.4  3140
517.2  3140
517  3108.75
516.8  3133.75
516.6  3066.25
516.4  3065
516.2  3037.5
516  3092.5
515.8  3143.75
515.6  3117.5
515.4  3073.75
515.2  3090
515  3146.25
514.8  3006.25
514.6  3148.75
514.4  3160
514.2  3093.75
514  3046.25
513.8  3112.5
513.6  3117.5
513.4  3186.25
513.2  3001.25
513  3085
512.8  3072.5
512.6  3156.25
512.4  3031.25
512.2  3045
512  3093.75
511.8  3160
511.6  3187.5
511.4  3190
511.2  3028.75
511  3105
510.8  3062.5
510.6  3136.25
510.4  3178.75
510.2  3056.25
510  3005
509.8  3200
509.6  3083.75
509.4  3115
509.2  3202.5
509  3101.25
508.8  3106.25
508.6  3166.25
508.4  3055
508.2  3127.5
508  3121.25
507.8  3120
507.6  3020
507.4  3242.5
507.2  3221.25
507  2987.5
506.8  3091.25
506.6  3053.75
506.4  3081.25
506.2  3068.75
506  3090
505.8  3243.75
505.6  3150
505.4  3080
505.2  3107.5
505  3115
504.8  3175
504.6  3056.25
504.4  3036.25
504.2  3232.5
504  3148.75
503.8  3187.5
503.6  3117.5
503.4  3071.25
503.2  3123.75
503  3112.5
502.8  3075
502.6  3087.5
502.4  3193.75
502.2  3038.75
502  3212.5
501.8  3020
501.6  3156.25
501.4  3152.5
501.2  2921.25
501  3143.75
500.8  3123.75
500.6  3063.75
500.4  3087.5
500.2  3138.75
500  3090
499.8  3056.25
499.6  3172.5
499.4  3040
499.2  3063.75
499  2956.25
498.8  3121.25
498.6  3167.5
498.4  2990
498.2  3056.25
498  3158.75
497.8  3146.25
497.6  3137.5
497.4  3192.5
497.2  3353.75
497  3330
496.8  3350
496.6  3188.75
496.4  3323.75
496.2  3396.25
496  3620
495.8  3250
495.6  3495
495.4  3353.75
495.2  3391.25
495  3233.75
494.8  3158.75
494.6  3253.75
494.4  3297.5
494.2  3197.5
494  3022.5
493.8  3031.25
493.6  3157.5
493.4  3048.75
493.2  2988.75
493  3118.75
492.8  3167.5
492.6  3078.75
492.4  2955
492.2  3021.25
492  3028.75
491.8  3101.25
491.6  3126.25
491.4  3025
491.2  3140
491  3003.75
490.8  3010
490.6  2977.5
490.4  3050
490.2  3071.25
490  3077.5
489.8  3118.75
489.6  3060
489.4  3145
489.2  3076.25
489  3170
488.8  3225
488.6  3226.25
488.4  3276.25
488.2  3308.75
488  3356.25
487.8  3503.75
487.6  3353.75
487.4  3458.75
487.2  3493.75
487  3533.75
486.8  3496.25
486.6  3383.75
486.4  3311.25
486.2  3356.25
486  3125
485.8  3305
485.6  3137.5
485.4  3016.25
485.2  3020
485  3176.25
484.8  3032.5
484.6  3003.75
484.4  2962.5
484.2  3021.25
484  3051.25
483.8  3047.5
483.6  3096.25
483.4  3087.5
483.2  3075
483  2923.75
482.8  3042.5
482.6  3026.25
482.4  3036.25
482.2  3117.5
482  3120
481.8  3051.25
481.6  3128.75
481.4  3063.75
481.2  3207.5
481  3121.25
480.8  3148.75
480.6  3166.25
480.4  3116.25
480.2  3142.5
480  3108.75
479.8  3150
479.6  3136.25
479.4  3181.25
479.2  3163.75
479  3112.5
478.8  3026.25
478.6  3095
478.4  3176.25
478.2  3200
478  3238.75
477.8  3316.25
477.6  3231.25
477.4  3182.5
477.2  3247.5
477  3251.25
476.8  3137.5
476.6  3260
476.4  3172.5
476.2  3157.5
476  3227.5
475.8  3307.5
475.6  3293.75
475.4  3202.5
475.2  3152.5
475  3231.25
474.8  3086.25
474.6  3193.75
474.4  3135
474.2  3101.25
474  3226.25
473.8  3153.75
473.6  3328.75
473.4  3118.75
473.2  3230
473  3241.25
472.8  3126.25
472.6  3242.5
472.4  3271.25
472.2  3168.75
472  3380
471.8  3272.5
471.6  3340
471.4  3281.25
471.2  3300
471  3271.25
470.8  3351.25
470.6  3241.25
470.4  3227.5
470.2  3218.75
470  3242.5
469.8  3283.75
469.6  3342.5
469.4  3321.25
469.2  3282.5
469  3105
468.8  3336.25
468.6  3266.25
468.4  3145
468.2  3147.5
468  3205
467.8  3187.5
467.6  3203.75
467.4  3160
467.2  3203.75
467  3135
466.8  3061.25
466.6  3135
466.4  3088.75
466.2  2936.25
466  3090
465.8  3078.75
465.6  2985
465.4  2927.5
465.2  2980
465  2852.5
464.8  3013.75
464.6  2941.25
464.4  2965
464.2  2845
464  2898.75
463.8  2988.75
463.6  2855
463.4  2850
463.2  2858.75
463  2818.75
462.8  2820
462.6  2933.75
462.4  2686.25
462.2  2852.5
462  2686.25
461.8  2701.25
461.6  2670
461.4  2563.75
461.2  2610
461  2661.25
460.8  2658.75
460.6  2583.75
460.4  2648.75
460.2  2526.25
460  2468.75
459.8  2511.25
459.6  2478.75
459.4  2563.75
459.2  2487.5
459  2538.75
458.8  2461.25
458.6  2448.75
458.4  2418.75
458.2  2410
458  2430
457.8  2528.75
457.6  2465
457.4  2363.75
457.2  2430
457  2401.25
456.8  2523.75
456.6  2553.75
456.4  2617.5
456.2  2562.5
456  2596.25
455.8  2597.5
455.6  2661.25
455.4  2791.25
455.2  2917.5
455  3071.25
454.8  3455
454.6  3650
454.4  3881.25
454.2  4333.75
454  4896.25
453.8  5226.25
453.6  5722.5
453.4  6213.75
453.2  6431.25
453  6636.25
452.8  6757.5
452.6  6333.75
452.4  6060
452.2  5406.25
452  4821.25
451.8  4086.25
451.6  3547.5
451.4  2888.75
451.2  2578.75
451  2366.25
450.8  2205
450.6  2066.25
450.4  1897.5
450.2  1910
450  1911.25
449.8  1892.5
449.6  1896.25
449.4  1855
449.2  1827.5
449  1945
448.8  2043.75
448.6  2045
448.4  2151.25
448.2  2175
448  2361.25
447.8  2456.25
447.6  2800
447.4  3196.25
447.2  3452.5
447  3993.75
446.8  4503.75
446.6  5001.25
446.4  5720
446.2  6570
446  7126.25
445.8  7667.5
445.6  8016.25
445.4  8593.75
445.2  8457.5
445  8041.25
444.8  7461.25
444.6  6698.75
444.4  5710
444.2  4703.75
444  3927.5
443.8  3272.5
443.6  2883.75
443.4  2402.5
443.2  2266.25
443  2148.75
442.8  1973.75
442.6  1980
442.4  1840
442.2  1683.75
442  1688.75
441.8  1717.5
441.6  1567.5
441.4  1595
441.2  1631.25
441  1617.5
440.8  1513.75
440.6  1521.25
440.4  1497.5
440.2  1440
440  1360
439.8  1433.75
439.6  1337.5
439.4  1370
439.2  1408.75
439  1308.75
438.8  1393.75
438.6  1297.5
438.4  1278.75
438.2  1261.25
438  1302.5
437.8  1246.25
437.6  1395
437.4  1347.5
437.2  1470
437  1433.75
436.8  1490
436.6  1526.25
436.4  1527.5
436.2  1582.5
436  1772.5
435.8  1692.5
435.6  1715
435.4  1761.25
435.2  1773.75
435  1657.5
434.8  1653.75
434.6  1671.25
434.4  1565
434.2  1542.5
434  1482.5
433.8  1442.5
433.6  1432.5
433.4  1477.5
433.2  1427.5
433  1346.25
432.8  1318.75
432.6  1338.75
432.4  1345
432.2  1282.5
432  1262.5
431.8  1242.5
431.6  1220
431.4  1147.5
431.2  1108.75
431  1202.5
430.8  1150
430.6  1191.25
430.4  1148.75
430.2  1122.5
430  1102.5
429.8  1155
429.6  1138.75
429.4  1058.75
429.2  1130
429  1095
428.8  1193.75
428.6  1145
428.4  1138.75
428.2  1180
428  1091.25
427.8  1138.75
427.6  1105
427.4  1058.75
427.2  1107.5
427  1145
426.8  1162.5
426.6  1145
426.4  1107.5
426.2  1130
426  1130
425.8  1126.25
425.6  1075
425.4  1148.75
425.2  1123.75
425  1145
424.8  1151.25
424.6  1208.75
424.4  1090
424.2  1136.25
424  1113.75
423.8  1166.25
423.6  1155
423.4  1072.5
423.2  1100
423  1155
422.8  1105
422.6  1141.25
422.4  1153.75
422.2  1143.75
422  1118.75
421.8  1127.5
421.6  1080
421.4  1077.5
421.2  1153.75
421  1102.5
420.8  1107.5
420.6  1120
420.4  1026.25
420.2  1146.25
420  1067.5
419.8  1126.25
419.6  1137.5
419.4  1132.5
419.2  1116.25
419  1158.75
418.8  1118.75
418.6  1035
418.4  1105
418.2  1098.75
418  1155
417.8  1063.75
417.6  1127.5
417.4  1170
417.2  1028.75
417  1038.75
416.8  1081.25
416.6  1061.25
416.4  1042.5
416.2  1145
416  1108.75
415.8  1022.5
415.6  1072.5
415.4  1102.5
415.2  1136.25
415  1017.5
414.8  1103.75
414.6  1020
414.4  1126.25
414.2  1073.75
414  1118.75
413.8  1120
413.6  1167.5
413.4  1181.25
413.2  1078.75
413  1076.25
412.8  1006.25
412.6  1092.5
412.4  1091.25
412.2  1106.25
412  1022.5
411.8  1101.25
411.6  1035
411.4  1066.25
411.2  1053.75
411  1097.5
410.8  1112.5
410.6  1075
410.4  1043.75
410.2  1102.5
410  1125
409.8  1062.5
409.6  1098.75
409.4  1027.5
409.2  1078.75
409  1027.5
408.8  1055
408.6  1082.5
408.4  1096.25
408.2  1058.75
408  1058.75
407.8  1070
407.6  1062.5
407.4  1025
407.2  1022.5
407  1147.5
406.8  1030
406.6  978.75
406.4  1006.25
406.2  1078.75
406  1080
405.8  1106.25
405.6  1068.75
405.4  1108.75
405.2  1063.75
405  1143.75
404.8  1085
404.6  1038.75
404.4  1092.5
404.2  1053.75
404  1110
403.8  1073.75
403.6  1023.75
403.4  1086.25
403.2  1101.25
403  1117.5
402.8  1173.75
402.6  1047.5
402.4  1026.25
402.2  1137.5
402  1027.5
401.8  1088.75
401.6  1056.25
401.4  1151.25
401.2  1070
401  1082.5
400.8  1101.25
400.6  1111.25
400.4  1123.75
400.2  1030
400  1093.75
399.8  1121.25
399.6  1071.25
399.4  1098.75
399.2  1067.5
399  1120
398.8  1105
398.6  1028.75
398.4  1047.5
398.2  1073.75
398  1107.5
397.8  1040
397.6  1093.75
397.4  1077.5
397.2  1102.5
397  1108.75
396.8  1038.75
396.6  1095
396.4  1018.75
396.2  1126.25
396  1042.5
395.8  1032.5
395.6  1062.5
395.4  1051.25
395.2  1118.75
395  1055
394.8  1047.5
394.6  1085
394.4  1026.25
394.2  1036.25
394  1113.75
393.8  983.75
393.6  1071.25
393.4  1103.75
393.2  988.75
393  970
392.8  1060
392.6  1056.25
392.4  1033.75
392.2  1075
392  1083.75
391.8  1088.75
391.6  1055
391.4  1016.25
391.2  993.75
391  1148.75
390.8  1063.75
390.6  1030
390.4  1053.75
390.2  981.25
390  1052.5
389.8  1020
389.6  1071.25
389.4  955
389.2  1095
389  1068.75
388.8  1028.75
388.6  1068.75
388.4  1081.25
388.2  1041.25
388  1023.75
387.8  1037.5
387.6  1035
387.4  1052.5
387.2  1036.25
387  1073.75
386.8  1063.75
386.6  993.75
386.4  987.5
386.2  1027.5
386  1053.75
385.8  1050
385.6  1100
385.4  1011.25
385.2  1037.5
385  1022.5
384.8  1075
384.6  1031.25
384.4  1060
384.2  1085
384  1062.5
383.8  1108.75
383.6  1030
383.4  1081.25
383.2  1105
383  1123.75
382.8  1086.25
382.6  1068.75
382.4  1078.75
382.2  1062.5
382  1095
381.8  1043.75
381.6  1053.75
381.4  1025
381.2  1052.5
381  1025
380.8  1015
380.6  1056.25
380.4  1071.25
380.2  1085
380  1082.5
379.8  1015
379.6  1081.25
379.4  1002.5
379.2  975
379  1001.25
378.8  1073.75
378.6  1113.75
378.4  1108.75
378.2  1007.5
378  1045
377.8  1065
377.6  1163.75
377.4  1048.75
377.2  1018.75
377  1017.5
376.8  1073.75
376.6  1022.5
376.4  1020
376.2  1090
376  1106.25
375.8  1063.75
375.6  1117.5
375.4  1143.75
375.2  1023.75
375  1035
374.8  1095
374.6  1066.25
374.4  1040
374.2  1022.5
374  1091.25
373.8  1123.75
373.6  1052.5
373.4  1066.25
373.2  1075
373  1041.25
372.8  1165
372.6  975
372.4  980
372.2  1026.25
372  988.75
371.8  1022.5
371.6  958.75
371.4  1015
371.2  1083.75
371  1051.25
370.8  1008.75
370.6  986.25
370.4  985
370.2  972.5
370  1030
369.8  1000
369.6  936.25
369.4  1002.5
369.2  1022.5
369  1021.25
368.8  965
368.6  1040
368.4  955
368.2  1043.75
368  1052.5
367.8  995
367.6  1055
367.4  972.5
367.2  987.5
367  1010
366.8  976.25
366.6  1022.5
366.4  978.75
366.2  1005
366  961.25
365.8  951.25
365.6  950
365.4  1062.5
365.2  1006.25
365  948.75
364.8  986.25
364.6  968.75
364.4  1050
364.2  961.25
364  962.5
363.8  1022.5
363.6  1010
363.4  1038.75
363.2  1002.5
363  1041.25
362.8  947.5
362.6  1012.5
362.4  997.5
362.2  990
362  1050
361.8  968.75
361.6  1026.25
361.4  983.75
361.2  1027.5
361  1032.5
360.8  1065
360.6  1045
360.4  1008.75
360.2  991.25
360  943.75
359.8  953.75
359.6  955
359.4  983.75
359.2  1031.25
359  916.25
358.8  1025
358.6  1015
358.4  1033.75
358.2  976.25
358  1007.5
357.8  1001.25
357.6  988.75
357.4  981.25
357.2  965
357  965
356.8  1013.75
356.6  990
356.4  997.5
356.2  1006.25
356  1040
355.8  1016.25
355.6  941.25
355.4  1020
355.2  1062.5
355  931.25
354.8  1090
354.6  1000
354.4  1005
354.2  953.75
354  1012.5
353.8  995
353.6  977.5
353.4  987.5
353.2  1016.25
353  1070
352.8  1013.75
352.6  1032.5
352.4  1030
352.2  932.5
352  1048.75
351.8  1045
351.6  1020
351.4  972.5
351.2  973.75
351  971.25
350.8  997.5
350.6  956.25
350.4  926.25
350.2  951.25
350  1016.25
349.8  1007.5
349.6  1015
349.4  973.75
349.2  1006.25
349  1043.75
348.8  1052.5
348.6  1021.25
348.4  1011.25
348.2  942.5
348  1026.25
347.8  987.5
347.6  991.25
347.4  988.75
347.2  1015
347  1055
346.8  962.5
346.6  941.25
346.4  985
346.2  953.75
346  998.75
345.8  1000
345.6  981.25
345.4  1013.75
345.2  1013.75
345  962.5
344.8  973.75
344.6  1047.5
344.4  986.25
344.2  1081.25
344  1051.25
343.8  1015
343.6  1012.5
343.4  983.75
343.2  956.25
343  1007.5
342.8  1043.75
342.6  995
342.4  1023.75
342.2  946.25
342  1013.75
341.8  1007.5
341.6  1043.75
341.4  1007.5
341.2  1012.5
341  957.5
340.8  990
340.6  980
340.4  1022.5
340.2  946.25
340  995
339.8  941.25
339.6  1035
339.4  1033.75
339.2  1071.25
339  956.25
338.8  1063.75
338.6  1021.25
338.4  1000
338.2  1048.75
338  968.75
337.8  1012.5
337.6  1000
337.4  1000
337.2  1005
337  987.5
336.8  1045
336.6  988.75
336.4  992.5
336.2  975
336  908.75
335.8  1022.5
335.6  987.5
335.4  1035
335.2  1012.5
335  1023.75
334.8  1028.75
334.6  950
334.4  1040
334.2  1047.5
334  1057.5
333.8  1011.25
333.6  1022.5
333.4  982.5
333.2  1060
333  1000
332.8  970
332.6  1053.75
332.4  992.5
332.2  1067.5
332  968.75
331.8  1002.5
331.6  1038.75
331.4  1058.75
331.2  987.5
331  1046.25
330.8  1015
330.6  1000
330.4  1020
330.2  1018.75
330  1050
329.8  1005
329.6  1076.25
329.4  1048.75
329.2  1037.5
329  1025
328.8  1045
328.6  962.5
328.4  957.5
328.2  1015
328  956.25
327.8  991.25
327.6  1010
327.4  955
327.2  1032.5
327  1078.75
326.8  1047.5
326.6  1041.25
326.4  1002.5
326.2  992.5
326  1092.5
325.8  1025
325.6  1077.5
325.4  1027.5
325.2  1005
325  980
324.8  1022.5
324.6  995
324.4  1075
324.2  1012.5
324  1033.75
323.8  1062.5
323.6  1032.5
323.4  1011.25
323.2  997.5
323  960
322.8  986.25
322.6  997.5
322.4  1081.25
322.2  1035
322  976.25
321.8  932.5
321.6  992.5
321.4  1017.5
321.2  1002.5
321  936.25
320.8  1021.25
320.6  1042.5
320.4  995
320.2  1035
320  1048.75
319.8  1061.25
319.6  1022.5
319.4  1088.75
319.2  1015
319  1043.75
318.8  1003.75
318.6  1058.75
318.4  1062.5
318.2  1026.25
318  1032.5
317.8  981.25
317.6  1023.75
317.4  1077.5
317.2  1006.25
317  951.25
316.8  1023.75
316.6  1015
316.4  1011.25
316.2  1018.75
316  1061.25
315.8  1053.75
315.6  1047.5
315.4  1061.25
315.2  1046.25
315  971.25
314.8  1028.75
314.6  995
314.4  971.25
314.2  1056.25
314  1021.25
313.8  1018.75
313.6  1030
313.4  1015
313.2  1036.25
313  1022.5
312.8  1033.75
312.6  1022.5
312.4  1037.5
312.2  1046.25
312  1006.25
311.8  1062.5
311.6  1037.5
311.4  1102.5
311.2  1046.25
311  1061.25
310.8  1023.75
310.6  987.5
310.4  985
310.2  1018.75
310  1026.25
309.8  1057.5
309.6  1000
309.4  1040
309.2  1012.5
309  1025
308.8  997.5
308.6  1035
308.4  1035
308.2  1123.75
308  1000
307.8  1017.5
307.6  1007.5
307.4  1013.75
307.2  1107.5
307  1055
306.8  997.5
306.6  1018.75
306.4  1027.5
306.2  1040
306  1050
305.8  977.5
305.6  1027.5
305.4  1040
305.2  1043.75
305  1028.75
304.8  1036.25
304.6  1058.75
304.4  1080
304.2  1046.25
304  1031.25
303.8  1067.5
303.6  1033.75
303.4  1026.25
303.2  1032.5
303  1032.5
302.8  1107.5
302.6  998.75
302.4  1020
302.2  1010
302  1033.75
301.8  945
301.6  1071.25
301.4  986.25
301.2  1061.25
301  1040
300.8  1013.75
300.6  1032.5
300.4  1087.5
300.2  1090
300  1027.5
299.8  1065
299.6  1102.5
299.4  1023.75
299.2  1115
299  1121.25
298.8  1057.5
298.6  1007.5
298.4  996.25
298.2  1030
298  1067.5
297.8  1022.5
297.6  1041.25
297.4  1042.5
297.2  1122.5
297  1091.25
296.8  1013.75
296.6  1048.75
296.4  1043.75
296.2  1073.75
296  1051.25
295.8  1022.5
295.6  1063.75
295.4  1047.5
295.2  1052.5
295  1081.25
294.8  1041.25
294.6  1130
294.4  1057.5
294.2  1082.5
294  1006.25
293.8  1082.5
293.6  987.5
293.4  1048.75
293.2  1032.5
293  1032.5
292.8  1095
292.6  1218.75
292.4  1061.25
292.2  1143.75
292  993.75
291.8  1015
291.6  995
291.4  1031.25
291.2  1050
291  1003.75
290.8  1091.25
290.6  1102.5
290.4  1076.25
290.2  1045
290  1011.25
289.8  1133.75
289.6  1088.75
289.4  1112.5
289.2  1091.25
289  1067.5
288.8  1090
288.6  1130
288.4  1093.75
288.2  1056.25
288  1082.5
287.8  1180
287.6  1168.75
287.4  1182.5
287.2  1162.5
287  1255
286.8  1148.75
286.6  1136.25
286.4  1133.75
286.2  1157.5
286  1187.5
285.8  1233.75
285.6  1088.75
285.4  1175
285.2  1141.25
285  1101.25
284.8  1076.25
284.6  1151.25
284.4  1062.5
284.2  1071.25
284  1046.25
283.8  1077.5
283.6  1091.25
283.4  1078.75
283.2  1125
283  1022.5
282.8  1125
282.6  1016.25
282.4  1075
282.2  981.25
282  1057.5
281.8  1057.5
281.6  1080
281.4  1013.75
281.2  987.5
281  1037.5
280.8  1068.75
280.6  1040
280.4  951.25
280.2  1061.25
280  1042.5
279.8  948.75
279.6  1000
279.4  1026.25
279.2  1030
279  1071.25
278.8  1036.25
278.6  1020
278.4  1043.75
278.2  1073.75
278  1055
277.8  1075
277.6  1021.25
277.4  1025
277.2  1037.5
277  1017.5
276.8  1073.75
276.6  1043.75
276.4  1090
276.2  1038.75
276  1112.5
275.8  1107.5
275.6  1077.5
275.4  1028.75
275.2  1105
275  1087.5
274.8  1080
274.6  1083.75
274.4  1046.25
274.2  1162.5
274  1082.5
273.8  1078.75
273.6  1140
273.4  1061.25
273.2  1115
273  1183.75
272.8  1198.75
272.6  1211.25
272.4  1271.25
272.2  1261.25
272  1321.25
271.8  1332.5
271.6  1393.75
271.4  1506.25
271.2  1467.5
271  1543.75
270.8  1596.25
270.6  1620
270.4  1591.25
270.2  1581.25
270  1605
269.8  1566.25
269.6  1466.25
269.4  1397.5
269.2  1438.75
269  1421.25
268.8  1197.5
268.6  1261.25
268.4  1245
268.2  1227.5
268  1158.75
267.8  1165
267.6  1131.25
267.4  1135
267.2  1081.25
267  1116.25
266.8  1082.5
266.6  1098.75
266.4  1097.5
266.2  1090
266  1108.75
265.8  1046.25
265.6  1032.5
265.4  1083.75
265.2  1041.25
265  1116.25
264.8  1078.75
264.6  1021.25
264.4  1116.25
264.2  993.75
264  1036.25
263.8  1053.75
263.6  1050
263.4  1137.5
263.2  1106.25
263  1068.75
262.8  1130
262.6  1027.5
262.4  1030
262.2  1062.5
262  1088.75
261.8  1158.75
261.6  1116.25
261.4  1122.5
261.2  1162.5
261  1066.25
260.8  1073.75
260.6  1073.75
260.4  1057.5
260.2  1115
260  1118.75
259.8  1072.5
259.6  1125
259.4  1090
259.2  1031.25
259  1028.75
258.8  1138.75
258.6  1055
258.4  1003.75
258.2  1053.75
258  1070
257.8  1096.25
257.6  1093.75
257.4  1070
257.2  1057.5
257  1140
256.8  1082.5
256.6  1058.75
256.4  1053.75
256.2  1188.75
256  1115
255.8  1095
255.6  1093.75
255.4  1063.75
255.2  1071.25
255  1175
254.8  1192.5
254.6  1110
254.4  1106.25
254.2  1137.5
254  1093.75
253.8  1086.25
253.6  1162.5
253.4  1152.5
253.2  1135
253  1127.5
252.8  1095
252.6  1063.75
252.4  1145
252.2  1101.25
252  1095
251.8  1020
251.6  1127.5
251.4  1095
251.2  1098.75
251  1113.75
250.8  1090
250.6  1060
250.4  1063.75
250.2  1038.75
250  990
249.8  1085
249.6  1067.5
249.4  1068.75
249.2  1028.75
249  951.25
248.8  1055
248.6  1033.75
248.4  993.75
248.2  1072.5
248  998.75
247.8  1013.75
247.6  1093.75
247.4  1017.5
247.2  955
247  1071.25
246.8  1013.75
246.6  1028.75
246.4  1093.75
246.2  1078.75
246  1050
245.8  977.5
245.6  1101.25
245.4  1085
245.2  1083.75
245  1080
244.8  992.5
244.6  1080
244.4  1026.25
244.2  1078.75
244  1093.75
243.8  1070
243.6  1073.75
243.4  1103.75
243.2  1062.5
243  1053.75
242.8  1041.25
242.6  1073.75
242.4  1030
242.2  1130
242  1100
241.8  1073.75
241.6  1142.5
241.4  997.5
241.2  1052.5
241  1013.75
240.8  1087.5
240.6  1001.25
240.4  1088.75
240.2  1102.5
240  1070
239.8  1021.25
239.6  1060
239.4  1053.75
239.2  1026.25
239  1036.25
238.8  1068.75
238.6  1008.75
238.4  1078.75
238.2  1058.75
238  1017.5
237.8  1023.75
237.6  992.5
237.4  1092.5
237.2  1006.25
237  1028.75
236.8  1113.75
236.6  1057.5
236.4  1087.5
236.2  965
236  1018.75
235.8  1031.25
235.6  1071.25
235.4  1106.25
235.2  1038.75
235  1040
234.8  1052.5
234.6  1047.5
234.4  1056.25
234.2  1088.75
234  1027.5
233.8  1028.75
233.6  986.25
233.4  1037.5
233.2  1060
233  1082.5
232.8  1091.25
232.6  1060
232.4  1106.25
232.2  1031.25
232  1053.75
231.8  1047.5
231.6  1065
231.4  1062.5
231.2  1082.5
231  982.5
230.8  1013.75
230.6  1086.25
230.4  1023.75
230.2  1046.25
230  1061.25
229.8  1067.5
229.6  1022.5
229.4  1073.75
229.2  1091.25
229  1112.5
228.8  1058.75
228.6  1047.5
228.4  1048.75
228.2  1055
228  1102.5
227.8  1063.75
227.6  1088.75
227.4  1102.5
227.2  1042.5
227  1017.5
226.8  1113.75
226.6  1083.75
226.4  1137.5
226.2  1067.5
226  1120
225.8  1092.5
225.6  1056.25
225.4  1105
225.2  1083.75
225  1080
224.8  1063.75
224.6  1076.25
224.4  1083.75
224.2  1061.25
224  1103.75
223.8  1132.5
223.6  1091.25
223.4  1107.5
223.2  1121.25
223  1093.75
222.8  1102.5
222.6  1065
222.4  1098.75
222.2  1115
222  1117.5
221.8  1076.25
221.6  1082.5
221.4  1001.25
221.2  1043.75
221  1047.5
220.8  1103.75
220.6  1196.25
220.4  1042.5
220.2  1080
220  1146.25
219.8  1170
219.6  1067.5
219.4  1132.5
219.2  1112.5
219  1100
218.8  1071.25
218.6  1098.75
218.4  1141.25
218.2  1073.75
218  1110
217.8  1211.25
217.6  1057.5
217.4  1127.5
217.2  1123.75
217  1110
216.8  1132.5
216.6  1143.75
216.4  1110
216.2  1162.5
216  1101.25
215.8  1138.75
215.6  1085
215.4  1080
215.2  1147.5
215  1065
214.8  1110
214.6  1121.25
214.4  1036.25
214.2  1103.75
214  1141.25
213.8  1051.25
213.6  1040
213.4  1045
213.2  1036.25
213  1113.75
212.8  1113.75
212.6  1048.75
212.4  1067.5
212.2  1063.75
212  1065
211.8  1112.5
211.6  1073.75
211.4  1042.5
211.2  1052.5
211  1106.25
210.8  1067.5
210.6  1077.5
210.4  1077.5
210.2  1063.75
210  1047.5
209.8  1118.75
209.6  1110
209.4  1085
209.2  1112.5
209  1071.25
208.8  1016.25
208.6  1067.5
208.4  1077.5
208.2  1062.5
208  997.5
207.8  1138.75
207.6  1018.75
207.4  1132.5
207.2  1070
207  1073.75
206.8  1033.75
206.6  1068.75
206.4  1115
206.2  1110
206  1071.25
205.8  1085
205.6  1077.5
205.4  1013.75
205.2  1055
205  1082.5
204.8  1085
204.6  1036.25
204.4  1086.25
204.2  1048.75
204  1087.5
203.8  1007.5
203.6  1070
203.4  1152.5
203.2  1101.25
203  1158.75
202.8  1095
202.6  1158.75
202.4  1225
202.2  1232.5
202  1335
201.8  1446.25
201.6  1483.75
201.4  1681.25
201.2  1636.25
201  1687.5
200.8  1791.25
200.6  1813.75
200.4  1857.5
200.2  1892.5
200  1927.5
199.8  2031.25
199.6  2011.25
199.4  2125
199.2  1963.75
199  1828.75
198.8  1686.25
198.6  1561.25
198.4  1318.75
198.2  1271.25
198  1135
197.8  1108.75
197.6  1037.5
197.4  1145
197.2  1076.25
197  1058.75
196.8  1085
196.6  998.75
196.4  1036.25
196.2  983.75
196  971.25
195.8  1061.25
195.6  1086.25
195.4  1127.5
195.2  1048.75
195  1051.25
194.8  1115
194.6  1140
194.4  1146.25
194.2  1126.25
194  1030
193.8  1090
193.6  1135
193.4  1095
193.2  1106.25
193  1030
192.8  1060
192.6  1558.75
192.4  1130
192.2  1100
192  1070
191.8  1121.25
191.6  1142.5
191.4  1117.5
191.2  1093.75
191  1125
190.8  1196.25
190.6  1048.75
190.4  1098.75
190.2  1215
190  1096.25
189.8  1053.75
189.6  1080
189.4  1137.5
189.2  1123.75
189  1151.25
188.8  1092.5
188.6  1050
188.4  1130
188.2  1040
188  1032.5
187.8  1018.75
187.6  1132.5
187.4  1091.25
187.2  1053.75
187  1031.25
186.8  1052.5
186.6  1021.25
186.4  1015
186.2  1023.75
186  1007.5
185.8  1060
185.6  1013.75
185.4  1020
185.2  981.25
185  1003.75
184.8  977.5
184.6  992.5
184.4  978.75
184.2  963.75
184  1022.5
183.8  1013.75
183.6  1036.25
183.4  988.75
183.2  998.75
183  1030
182.8  980
182.6  1062.5
182.4  1030
182.2  1047.5
182  1077.5
181.8  1106.25
181.6  1171.25
181.4  1140
181.2  1238.75
181  1263.75
180.8  1311.25
180.6  1440
180.4  1467.5
180.2  1532.5
180  1426.25
179.8  1456.25
179.6  1471.25
179.4  1341.25
179.2  1318.75
179  1275
178.8  1235
178.6  1191.25
178.4  1150
178.2  1050
178  1058.75
177.8  1035
177.6  1051.25
177.4  1033.75
177.2  983.75
177  956.25
176.8  1011.25
176.6  967.5
176.4  1011.25
176.2  965
176  952.5
175.8  1000
175.6  925
175.4  938.75
175.2  962.5
175  918.75
174.8  893.75
174.6  1011.25
174.4  977.5
174.2  932.5
174  946.25
173.8  907.5
173.6  960
173.4  957.5
173.2  920
173  978.75
172.8  945
172.6  900
172.4  955
172.2  977.5
172  943.75
171.8  952.5
171.6  957.5
171.4  932.5
171.2  985
171  981.25
170.8  927.5
170.6  928.75
170.4  1002.5
170.2  971.25
170  1005
169.8  942.5
169.6  1028.75
169.4  1020
169.2  946.25
169  923.75
168.8  963.75
168.6  896.25
168.4  951.25
168.2  991.25
168  967.5
167.8  948.75
167.6  957.5
167.4  1021.25
167.2  1021.25
167  953.75
166.8  937.5
166.6  925
166.4  910
166.2  978.75
166  948.75
165.8  943.75
165.6  940
165.4  937.5
165.2  911.25
165  911.25
164.8  973.75
164.6  980
164.4  916.25
164.2  990
164  931.25
163.8  918.75
163.6  890
163.4  968.75
163.2  916.25
163  943.75
162.8  978.75
162.6  937.5
162.4  960
162.2  950
162  918.75
161.8  997.5
161.6  927.5
161.4  901.25
161.2  970
161  900
160.8  991.25
160.6  961.25
160.4  941.25
160.2  990
160  966.25
159.8  926.25
159.6  952.5
159.4  928.75
159.2  962.5
159  916.25
158.8  977.5
158.6  1035
158.4  1011.25
158.2  918.75
158  925
157.8  933.75
157.6  915
157.4  962.5
157.2  873.75
157  895
156.8  900
156.6  990
156.4  957.5
156.2  965
156  983.75
155.8  980
155.6  1022.5
155.4  923.75
155.2  955
155  916.25
154.8  902.5
154.6  956.25
154.4  930
154.2  1010
154  923.75
153.8  881.25
153.6  955
153.4  998.75
153.2  942.5
153  970
152.8  952.5
152.6  1011.25
152.4  1010
152.2  922.5
152  997.5
151.8  955
151.6  958.75
151.4  966.25
151.2  921.25
151  966.25
150.8  992.5
150.6  927.5
150.4  1003.75
150.2  942.5
150  998.75
149.8  978.75
149.6  931.25
149.4  911.25
149.2  967.5
149  945
148.8  993.75
148.6  986.25
148.4  866.25
148.2  885
148  952.5
147.8  960
147.6  923.75
147.4  946.25
147.2  902.5
147  1005
146.8  950
146.6  941.25
146.4  897.5
146.2  980
146  981.25
145.8  932.5
145.6  908.75
145.4  977.5
145.2  1006.25
145  1005
144.8  968.75
144.6  962.5
144.4  956.25
144.2  972.5
144  1023.75
143.8  922.5
143.6  980
143.4  943.75
143.2  983.75
143  957.5
142.8  965
142.6  931.25
142.4  973.75
142.2  972.5
142  978.75
141.8  953.75
141.6  981.25
141.4  927.5
141.2  1002.5
141  988.75
140.8  993.75
140.6  965
140.4  973.75
140.2  1003.75
140  1028.75
139.8  941.25
139.6  967.5
139.4  907.5
139.2  950
139  956.25
138.8  1023.75
138.6  961.25
138.4  1002.5
138.2  945
138  993.75
137.8  1046.25
137.6  945
137.4  941.25
137.2  987.5
137  1010
136.8  992.5
136.6  972.5
136.4  1011.25
136.2  895
136  985
135.8  952.5
135.6  970
135.4  1023.75
135.2  941.25
135  990
134.8  993.75
134.6  960
134.4  1001.25
134.2  986.25
134  935
133.8  961.25
133.6  936.25
133.4  1005
133.2  1007.5
133  988.75
132.8  1001.25
132.6  988.75
132.4  932.5
132.2  1001.25
132  1048.75
131.8  961.25
131.6  956.25
131.4  925
131.2  965
131  952.5
130.8  965
130.6  1016.25
130.4  992.5
130.2  933.75
130  986.25
129.8  1017.5
129.6  1033.75
129.4  993.75
129.2  1005
129  1056.25
128.8  1048.75
128.6  961.25
128.4  1042.5
128.2  1022.5
128  973.75
127.8  1023.75
127.6  988.75
127.4  1021.25
127.2  1066.25
127  998.75
126.8  1053.75
126.6  1055
126.4  1041.25
126.2  1037.5
126  1022.5
125.8  1040
125.6  1063.75
125.4  1065
125.2  1001.25
125  991.25
124.8  1136.25
124.6  1043.75
124.4  1090
124.2  1071.25
124  1028.75
123.8  1075
123.6  1077.5
123.4  1101.25
123.2  1121.25
123  1043.75
122.8  1030
122.6  1067.5
122.4  980
122.2  1125
122  1061.25
121.8  1016.25
121.6  1001.25
121.4  1048.75
121.2  1001.25
121  1025
120.8  1046.25
120.6  1055
120.4  993.75
120.2  1091.25
120  975
119.8  993.75
119.6  966.25
119.4  992.5
119.2  987.5
119  1033.75
118.8  1045
118.6  1037.5
118.4  985
118.2  971.25
118  1045
117.8  1006.25
117.6  1022.5
117.4  998.75
117.2  990
117  1035
116.8  948.75
116.6  985
116.4  1043.75
116.2  1038.75
116  1008.75
115.8  948.75
115.6  942.5
115.4  1013.75
115.2  992.5
115  1008.75
114.8  986.25
114.6  998.75
114.4  983.75
114.2  1026.25
114  952.5
113.8  992.5
113.6  967.5
113.4  971.25
113.2  1023.75
113  957.5
112.8  947.5
112.6  1006.25
112.4  978.75
112.2  1005
112  976.25
111.8  931.25
111.6  991.25
111.4  983.75
111.2  915
111  1003.75
110.8  936.25
110.6  935
110.4  947.5
110.2  976.25
110  1018.75
109.8  1015
109.6  1007.5
109.4  977.5
109.2  1010
109  986.25
108.8  993.75
108.6  982.5
108.4  948.75
108.2  1001.25
108  955
107.8  955
107.6  948.75
107.4  962.5
107.2  1015
107  1003.75
106.8  968.75
106.6  1056.25
106.4  1051.25
106.2  1008.75
106  980
105.8  1022.5
105.6  990
105.4  923.75
105.2  1051.25
105  986.25
104.8  1077.5
104.6  1021.25
104.4  980
104.2  1065
104  1033.75
103.8  1047.5
103.6  977.5
103.4  1007.5
103.2  1040
103  1043.75
102.8  1031.25
102.6  1016.25
102.4  1023.75
102.2  977.5
102  973.75
101.8  978.75
101.6  971.25
101.4  1037.5
101.2  986.25
101  952.5
100.8  1031.25
100.6  1041.25
100.4  943.75
100.2  1061.25
100  1000
99.8  960
99.6  978.75
99.4  1020
99.2  1000
99  918.75
98.8  1023.75
98.6  961.25
98.4  1052.5
98.2  1050
98  923.75
97.8  966.25
97.6  953.75
97.4  945
97.2  990
97  987.5
96.8  973.75
96.6  982.5
96.4  981.25
96.2  1018.75
96  1061.25
95.8  1018.75
95.6  1137.5
95.4  1161.25
95.2  1218.75
95  1363.75
94.8  1460
94.6  1553.75
94.4  1650
94.2  1751.25
94  1833.75
93.8  1880
93.6  1886.25
93.4  1706.25
93.2  1640
93  1625
92.8  1525
92.6  1552.5
92.4  1537.5
92.2  1737.5
92  1913.75
91.8  2065
91.6  2111.25
91.4  2281.25
91.2  2115
91  2202.5
90.8  1958.75
90.6  1807.5
90.4  1626.25
90.2  1343.75
90  1261.25
89.8  1235
89.6  1097.5
89.4  1013.75
89.2  997.5
89  970
88.8  1013.75
88.6  897.5
88.4  1018.75
88.2  980
88  911.25
87.8  922.5
87.6  960
87.4  953.75
87.2  912.5
87  932.5
86.8  967.5
86.6  922.5
86.4  955
86.2  948.75
86  963.75
85.8  971.25
85.6  942.5
85.4  931.25
85.2  985
85  990
84.8  1056.25
84.6  1041.25
84.4  1002.5
84.2  1030
84  987.5
83.8  986.25
83.6  1008.75
83.4  987.5
83.2  971.25
83  1011.25
82.8  982.5
82.6  1025
82.4  990
82.2  1000
82  1067.5
81.8  1003.75
81.6  1003.75
81.4  1070
81.2  1116.25
81  1032.5
80.8  1025
80.6  976.25
80.4  1005
80.2  1012.5
80  968.75
79.8  1015
79.6  1005
79.4  985
79.2  948.75
79  998.75
78.8  1071.25
78.6  985
78.4  965
78.2  922.5
78  881.25
77.8  958.75
77.6  943.75
77.4  938.75
77.2  922.5
77  956.25
76.8  815
76.6  933.75
76.4  857.5
76.2  883.75
76  893.75
75.8  836.25
75.6  900
75.4  875
75.2  811.25
75  847.5
74.8  853.75
74.6  886.25
74.4  785
74.2  845
74  813.75
73.8  868.75
73.6  795
73.4  803.75
73.2  776.25
73  810
72.8  806.25
72.6  752.5
72.4  782.5
72.2  753.75
72  773.75
71.8  795
71.6  800
71.4  793.75
71.2  777.5
71  772.5
70.8  763.75
70.6  812.5
70.4  778.75
70.2  773.75
70  730
69.8  761.25
69.6  826.25
69.4  747.5
69.2  821.25
69  731.25
68.8  728.75
68.6  780
68.4  730
68.2  795
68  748.75
67.8  730
67.6  683.75
67.4  751.25
67.2  711.25
67  715
66.8  722.5
66.6  697.5
66.4  693.75
66.2  773.75
66  716.25
65.8  741.25
65.6  733.75
65.4  745
65.2  702.5
65  705
64.8  705
64.6  705
64.4  722.5
64.2  750
64  730
63.8  726.25
63.6  731.25
63.4  687.5
63.2  688.75
63  737.5
62.8  728.75
62.6  721.25
62.4  751.25
62.2  722.5
62  690
61.8  735
61.6  706.25
61.4  727.5
61.2  626.25
61  732.5
60.8  721.25
60.6  693.75
60.4  698.75
60.2  671.25
60  708.75
59.8  670
59.6  695
59.4  698.75
59.2  727.5
59  703.75
58.8  671.25
58.6  680
58.4  700
58.2  717.5
58  703.75
57.8  706.25
57.6  696.25
57.4  685
57.2  682.5
57  673.75
56.8  670
56.6  695
56.4  695
56.2  640
56  726.25
55.8  695
55.6  695
55.4  676.25
55.2  713.75
55  712.5
54.8  675
54.6  665
54.4  707.5
54.2  720
54  688.75
53.8  662.5
53.6  668.75
53.4  658.75
53.2  696.25
53  698.75
52.8  688.75
52.6  653.75
52.4  747.5
52.2  680
52  692.5
51.8  716.25
51.6  710
51.4  691.25
51.2  673.75
51  691.25
50.8  722.5
50.6  716.25
50.4  711.25
50.2  736.25
50  725
49.8  663.75
49.6  717.5
49.4  687.5
49.2  693.75
49  668.75
48.8  713.75
48.6  746.25
48.4  735
48.2  737.5
48  702.5
47.8  700
47.6  725
47.4  683.75
47.2  758.75
47  702.5
46.8  708.75
46.6  701.25
46.4  708.75
46.2  747.5
46  718.75
45.8  738.75
45.6  763.75
45.4  765
45.2  686.25
45  662.5
44.8  777.5
44.6  785
44.4  732.5
44.2  752.5
44  735
43.8  760
43.6  678.75
43.4  746.25
43.2  766.25
43  713.75
42.8  747.5
42.6  728.75
42.4  721.25
42.2  706.25
42  720
41.8  721.25
41.6  718.75
41.4  756.25
41.2  766.25
41  735
40.8  731.25
40.6  708.75
40.4  760
40.2  736.25
40  760
39.8  657.5
39.6  648.75
39.4  670
39.2  771.25
39  717.5
38.8  713.75
38.6  707.5
38.4  712.5
38.2  720
38  711.25
37.8  781.25
37.6  665
37.4  666.25
37.2  706.25
37  738.75
36.8  682.5
36.6  730
36.4  723.75
36.2  680
36  748.75
35.8  711.25
35.6  725
35.4  737.5
35.2  710
35  721.25
34.8  717.5
34.6  693.75
34.4  652.5
34.2  736.25
34  663.75
33.8  620
33.6  726.25
33.4  735
33.2  723.75
33  682.5
32.8  683.75
32.6  675
32.4  691.25
32.2  692.5
32  696.25
31.8  688.75
31.6  668.75
31.4  697.5
31.2  718.75
31  655
30.8  696.25
30.6  692.5
30.4  690
30.2  695
30  677.5
29.8  668.75
29.6  705
29.4  780
29.2  696.25
29  681.25
28.8  713.75
28.6  720
28.4  757.5
28.2  763.75
28  711.25
27.8  727.5
27.6  691.25
27.4  732.5
27.2  742.5
27  775
26.8  752.5
26.6  713.75
26.4  681.25
26.2  711.25
26  722.5
25.8  680
25.6  625
25.4  610
25.2  668.75
25  682.5
24.8  645
24.6  645
24.4  638.75
24.2  650
24  648.75
23.8  636.25
23.6  656.25
23.4  637.5
23.2  638.75
23  686.25
22.8  658.75
22.6  657.5
22.4  660
22.2  691.25
22  703.75
21.8  673.75
21.6  725
21.4  786.25
21.2  837.5
21  835
20.8  935
20.6  1023.75
20.4  1092.5
20.2  1210
20  1350
19.8  1417.5
19.6  1480
19.4  1587.5
19.2  1757.5
19  1752.5
18.8  1770
18.6  1915
18.4  1740
18.2  1715
18  1556.25
17.8  1373.75
17.6  1312.5
17.4  1058.75
17.2  1005
17  905
16.8  802.5
16.6  783.75
16.4  751.25
16.2  678.75
16  711.25
15.8  666.25
15.6  712.5
15.4  687.5
15.2  625
15  610
14.8  561.25
14.6  616.25
14.4  511.25
14.2  538.75
14  516.25
13.8  503.75
13.6  461.25
13.4  528.75
13.2  486.25
13  457.5
12.8  473.75
12.6  467.5
12.4  466.25
12.2  517.5
12  488.75
11.8  467.5
11.6  441.25
11.4  468.75
11.2  500
11  497.5
10.8  455
10.6  466.25
10.4  512.5
10.2  472.5
10  548.75
9.8  582.5
9.6  587.5
9.4  575
9.2  612.5
9  538.75
8.8  563.75
8.6  600
8.4  626.25
8.2  661.25
8  612.5
7.8  590
7.6  602.5
7.4  637.5
7.2  622.5
7  578.75
6.8  623.75
6.6  626.25
6.4  638.75
6.2  630
6  550
5.8  587.5
5.6  601.25
5.4  541.25
5.2  518.75
5  640
4.8  532.5
4.6  467.5
4.4  503.75
4.2  505
4  463.75
3.8  458.75
3.6  441.25
3.4  441.25
3.2  418.75
3  445
2.8  448.75
2.6  422.5
2.4  380
2.2  455
2  426.25
1.8  426.25
1.6  417.5
1.4  397.5
1.2  402.5
1  427.5
0.8  413.75
0.6  428.75
0.4  398.75
0.2  418.75
-2.2737368e-013  403.75
-0.2  430
-0.4  422.5
-0.6  448.75
-0.8  430
-1  411.25
-1.2  430
-1.4  400
-1.6  435
-1.8  377.5
-2  458.75
-2.2  442.5
-2.4  445
-2.6  412.5
-2.8  400
-3  403.75
-3.2  428.75
-3.4  420
-3.6  390
-3.8  411.25
-4  440

