# Created by:        SpecsLab Prodigy, Version 4.60.2-r85849
#
# XY-Serializer Export Settings:
#   Comment Prefix:           #
#   Output meta data:         yes
#   Energy Axis:              Binding Energy
#   Count Rate:               Counts per Second
#   Separate Scan Data:       no
#   Separate Channel Data:    no
#   External Channel Data:    yes
#   Transmission Function:    no
#   ErrorBar:                 no
#   Operation Results:        yes
#   Time Zone Format:         UTC
#
# Group:             Spectrum Group
#
# Region:            O1s
# Acquisition Date:  08/25/22 00:24:06 UTC
# Analysis Method:   XPS
# Analyzer:          Phoibos 100 R6
# Analyzer Lens:     LargeArea:1.5kV
# Analyzer Slit:     1:0.2x20\B:open
# Scan Mode:         FixedAnalyzerTransmission
# Curves/Scan:       1
# Values/Curve:      141
# Dwell Time:        0.8
# Excitation Energy: 1486.61
# Binding Energy:    541
# Pass Energy:       30
# Bias Voltage:      90
# Detector Voltage:  2600
# Eff. Workfunction: 4.309
# Source:            X-Ray Dummy
# Comment:
#
# Cycle: 0
# Number of Scans: 40
#
# Cycle: 0, Curve: 0
# Acquisition Date: 08/25/22 00:24:06 UTC
#
# ColumnLabels: energy counts/s
#
541  3832.1563
540.9  3836.75
540.8  3807.1875
540.7  3804.4688
540.6  3813.7813
540.5  3836.9688
540.4  3794.5625
540.3  3808.9375
540.2  3803.7813
540.1  3813.7188
540  3786.9375
539.9  3790.0938
539.8  3816.8438
539.7  3783.7188
539.6  3791.4375
539.5  3806.0938
539.4  3794.0938
539.3  3785.5
539.2  3799.5
539.1  3786.6875
539  3784.3438
538.9  3781.75
538.8  3794.5
538.7  3778.2188
538.6  3789.625
538.5  3777.7188
538.4  3765.75
538.3  3785.5625
538.2  3772.2188
538.1  3772.9375
538  3797.8438
537.9  3773.25
537.8  3771.4063
537.7  3789.5625
537.6  3742.5313
537.5  3736.375
537.4  3766.2813
537.3  3761.6563
537.2  3765
537.1  3749.375
537  3737.9375
536.9  3754.4688
536.8  3732.4688
536.7  3747.6875
536.6  3709.625
536.5  3739.5
536.4  3752.25
536.3  3741.0625
536.2  3743.6875
536.1  3740.7188
536  3743.5313
535.9  3739.5313
535.8  3726.375
535.7  3730.7813
535.6  3738.0625
535.5  3723.8438
535.4  3766.25
535.3  3734.8125
535.2  3727.75
535.1  3762.4063
535  3755.5313
534.9  3766.4375
534.8  3774.0313
534.7  3776.625
534.6  3794.5313
534.5  3801.6563
534.4  3810.5938
534.3  3839.0313
534.2  3839.4063
534.1  3865.5313
534  3885.1563
533.9  3906.375
533.8  3951.125
533.7  3974.7813
533.6  4018.9063
533.5  4055.75
533.4  4087.5625
533.3  4159.4063
533.2  4168.6563
533.1  4230.4688
533  4323.0938
532.9  4356.625
532.8  4431.375
532.7  4519.875
532.6  4571.25
532.5  4674.0938
532.4  4775.5
532.3  4859.0625
532.2  4995.6563
532.1  5096.25
532  5220.9688
531.9  5384.3438
531.8  5536.375
531.7  5688.4063
531.6  5870.75
531.5  6044.7188
531.4  6233.625
531.3  6426.2188
531.2  6624.4063
531.1  6807.8438
531  6980.875
530.9  7180.9063
530.8  7333.9375
530.7  7504.0625
530.6  7604.4375
530.5  7676.3125
530.4  7756.6875
530.3  7799.1563
530.2  7765.4063
530.1  7722.75
530  7602.9375
529.9  7477.6875
529.8  7278.0938
529.7  7086.5
529.6  6846.4063
529.5  6598.6875
529.4  6356.5938
529.3  6093.625
529.2  5802.0625
529.1  5539.5625
529  5299.0625
528.9  5082.875
528.8  4842.8438
528.7  4670.1563
528.6  4496.0938
528.5  4355.8125
528.4  4235.5938
528.3  4108.25
528.2  4005.0313
528.1  3935.5313
528  3877.4688
527.9  3816.9375
527.8  3795.5
527.7  3766.9688
527.6  3721.1563
527.5  3693.125
527.4  3667.25
527.3  3668.75
527.2  3626.4063
527.1  3656.7188
527  3618.75

# Region:            overview
# Acquisition Date:  08/24/22 16:45:33 UTC
# Analysis Method:   XPS
# Analyzer:          Phoibos 100 R6
# Analyzer Lens:     MediumArea:1.5kV
# Analyzer Slit:     1:0.2x20\B:open
# Scan Mode:         FixedAnalyzerTransmission
# Curves/Scan:       1
# Values/Curve:      1205
# Dwell Time:        0.2
# Excitation Energy: 1486.61
# Binding Energy:    1200
# Pass Energy:       50
# Bias Voltage:      90
# Detector Voltage:  2600
# Eff. Workfunction: 4.309
# Source:            X-Ray Dummy
# Comment:
#
# Cycle: 0
# Number of Scans: 1
#
# Cycle: 0, Curve: 0
# Acquisition Date: 08/24/22 16:45:33 UTC
#
# ColumnLabels: energy counts/s
#
1200  10760
1199  10410
1198  10715
1197  10295
1196  10850
1195  10715
1194  10490
1193  10345
1192  10650
1191  10135
1190  10495
1189  10270
1188  10530
1187  9950
1186  10050
1185  10225
1184  9655
1183  9910
1182  9700
1181  9655
1180  9915
1179  9110
1178  9535
1177  9415
1176  9470
1175  9565
1174  9685
1173  9440
1172  9510
1171  9420
1170  9190
1169  9740
1168  9365
1167  9390
1166  9810
1165  9620
1164  8935
1163  9735
1162  9610
1161  9160
1160  10120
1159  9260
1158  9595
1157  9620
1156  9920
1155  10110
1154  9375
1153  9495
1152  9450
1151  9120
1150  9625
1149  9475
1148  9175
1147  9410
1146  9120
1145  9195
1144  8740
1143  8695
1142  8720
1141  8735
1140  7885
1139  8095
1138  7835
1137  8330
1136  7915
1135  8035
1134  8005
1133  8325
1132  7430
1131  7685
1130  7605
1129  7490
1128  7570
1127  7250
1126  7200
1125  7230
1124  6945
1123  7130
1122  7550
1121  7430
1120  7180
1119  6975
1118  7290
1117  7120
1116  7235
1115  7260
1114  7000
1113  7155
1112  7240
1111  7555
1110  7145
1109  7445
1108  7340
1107  7190
1106  7005
1105  7425
1104  7160
1103  6805
1102  6985
1101  7090
1100  7095
1099  7220
1098  7235
1097  7285
1096  7840
1095  7445
1094  7720
1093  7705
1092  8190
1091  7900
1090  8670
1089  9235
1088  10280
1087  10930
1086  10720
1085  10665
1084  9310
1083  8940
1082  8370
1081  8245
1080  8840
1079  8675
1078  7810
1077  6805
1076  5925
1075  5580
1074  5655
1073  5565
1072  5770
1071  5765
1070  5765
1069  5610
1068  5610
1067  5750
1066  5420
1065  5765
1064  5520
1063  5825
1062  5705
1061  5440
1060  5760
1059  5320
1058  5385
1057  5150
1056  5165
1055  5050
1054  5100
1053  5430
1052  5125
1051  5035
1050  4965
1049  4670
1048  4925
1047  5070
1046  4485
1045  4865
1044  4880
1043  4815
1042  4680
1041  4660
1040  4810
1039  4905
1038  4910
1037  4700
1036  4540
1035  4630
1034  4500
1033  4735
1032  4570
1031  4495
1030  4760
1029  4535
1028  4650
1027  4710
1026  4720
1025  4650
1024  5025
1023  4810
1022  4835
1021  4540
1020  4870
1019  4675
1018  4800
1017  4345
1016  5065
1015  4745
1014  5020
1013  4760
1012  4665
1011  4620
1010  4720
1009  4705
1008  4885
1007  4975
1006  5000
1005  4530
1004  4500
1003  4530
1002  4380
1001  4925
1000  4580
999  4570
998  4885
997  4595
996  4965
995  4930
994  4935
993  4930
992  4875
991  4850
990  4965
989  4945
988  4720
987  4735
986  4900
985  4660
984  4490
983  4600
982  4690
981  4740
980  4660
979  4870
978  5240
977  5205
976  5780
975  5855
974  6065
973  5650
972  5165
971  4935
970  4850
969  4400
968  4490
967  4325
966  4325
965  4390
964  4010
963  4225
962  4240
961  3950
960  4175
959  4210
958  4285
957  4390
956  4190
955  3790
954  4195
953  4325
952  4120
951  4280
950  4295
949  4095
948  4325
947  4095
946  4330
945  4040
944  4485
943  3930
942  4255
941  4085
940  4180
939  4090
938  4395
937  4375
936  4105
935  4305
934  4135
933  3885
932  4200
931  4160
930  4310
929  4245
928  4165
927  4340
926  4085
925  4440
924  4330
923  4230
922  4285
921  4070
920  3980
919  4175
918  4055
917  4170
916  4000
915  4090
914  4300
913  4045
912  4230
911  4160
910  4335
909  4130
908  4015
907  4135
906  4255
905  4265
904  4300
903  4225
902  4070
901  4335
900  4100
899  4330
898  4465
897  4160
896  4315
895  4340
894  4170
893  4165
892  4405
891  4290
890  4225
889  4065
888  4350
887  4005
886  4035
885  4280
884  4175
883  4110
882  4525
881  4005
880  4105
879  4195
878  4175
877  4465
876  4285
875  3745
874  4325
873  4265
872  3965
871  4130
870  4250
869  4330
868  4200
867  4465
866  4135
865  4065
864  4270
863  4220
862  4215
861  4110
860  4355
859  4550
858  4320
857  4250
856  4175
855  4390
854  4150
853  4185
852  4430
851  4310
850  4350
849  4425
848  4355
847  4315
846  4380
845  4380
844  4300
843  4340
842  4340
841  4490
840  4125
839  4540
838  4420
837  4255
836  4265
835  4115
834  4425
833  4490
832  4760
831  4705
830  4780
829  4730
828  4885
827  4950
826  4610
825  4780
824  4615
823  4525
822  4700
821  4525
820  4465
819  4720
818  4725
817  4315
816  4335
815  4680
814  4540
813  4400
812  4270
811  4350
810  4245
809  4145
808  4185
807  4450
806  4150
805  4005
804  4455
803  4335
802  4510
801  4225
800  4430
799  4315
798  4235
797  4335
796  4405
795  4610
794  4535
793  4255
792  4395
791  4340
790  4275
789  4530
788  4520
787  4255
786  4415
785  4160
784  4280
783  4395
782  4250
781  4465
780  4110
779  4255
778  4225
777  4470
776  4140
775  4395
774  4195
773  4490
772  4560
771  4440
770  3960
769  4310
768  4530
767  4230
766  4330
765  4535
764  4420
763  4275
762  4515
761  4670
760  4405
759  4690
758  4660
757  4425
756  4670
755  4430
754  4470
753  4375
752  4450
751  4660
750  4395
749  4495
748  4715
747  4590
746  4345
745  4545
744  4585
743  4440
742  4630
741  4295
740  4405
739  4750
738  4635
737  4595
736  4585
735  4590
734  4455
733  4445
732  4570
731  4575
730  4775
729  4550
728  4900
727  4505
726  4925
725  4620
724  4820
723  4870
722  4845
721  4755
720  4895
719  5045
718  4840
717  4915
716  5290
715  4940
714  4845
713  4750
712  4525
711  4675
710  4710
709  4715
708  5010
707  5230
706  5505
705  6150
704  6735
703  6225
702  5945
701  5195
700  5105
699  4635
698  4935
697  4700
696  4545
695  4530
694  4870
693  4800
692  4715
691  4815
690  4540
689  4415
688  4590
687  4245
686  4820
685  4695
684  4535
683  4735
682  4595
681  4710
680  4515
679  4580
678  4460
677  4675
676  4550
675  4545
674  4565
673  4645
672  4510
671  4790
670  5135
669  5300
668  6285
667  7565
666  8635
665  8040
664  7180
663  5900
662  4950
661  4365
660  4355
659  4405
658  4490
657  4240
656  4405
655  4295
654  4440
653  4100
652  4000
651  4085
650  3880
649  3940
648  3830
647  3940
646  3890
645  3985
644  3785
643  3795
642  4000
641  4225
640  3975
639  3970
638  3960
637  3950
636  3895
635  3855
634  4095
633  4160
632  3735
631  3730
630  3805
629  3910
628  4055
627  3730
626  3775
625  4025
624  3970
623  3940
622  3915
621  3865
620  3885
619  3780
618  3825
617  4260
616  4165
615  3770
614  3885
613  4060
612  3930
611  3995
610  4130
609  4290
608  3855
607  3920
606  4125
605  3835
604  4100
603  3825
602  4210
601  3960
600  4140
599  4025
598  4130
597  4270
596  4075
595  4145
594  3925
593  4140
592  4170
591  4190
590  4070
589  4315
588  4220
587  3935
586  4325
585  4240
584  4120
583  4085
582  4265
581  4000
580  4335
579  4225
578  4155
577  4330
576  4290
575  4305
574  4075
573  4175
572  4265
571  4555
570  4145
569  4380
568  4380
567  4315
566  4270
565  4465
564  4075
563  3870
562  4335
561  4250
560  3955
559  4560
558  4445
557  4445
556  4130
555  4470
554  4565
553  4240
552  4500
551  4495
550  4385
549  5015
548  4520
547  4615
546  4640
545  4515
544  4615
543  4085
542  4480
541  4350
540  4015
539  4310
538  4160
537  4170
536  4130
535  4565
534  4370
533  4745
532  5585
531  7805
530  8550
529  6635
528  4920
527  4185
526  4070
525  4105
524  4115
523  4280
522  4460
521  4340
520  4320
519  4265
518  4155
517  3995
516  4095
515  3915
514  4150
513  4130
512  3900
511  4250
510  4235
509  4350
508  4070
507  4020
506  4195
505  4085
504  3850
503  4235
502  4200
501  4140
500  4170
499  4070
498  4210
497  4370
496  4620
495  5310
494  4495
493  4335
492  4060
491  4035
490  4000
489  4245
488  4945
487  5190
486  5130
485  4735
484  4225
483  4095
482  4055
481  3935
480  4075
479  4025
478  3770
477  4210
476  3780
475  4135
474  4095
473  4270
472  4345
471  4220
470  4330
469  4490
468  4205
467  4485
466  4265
465  4260
464  4545
463  4215
462  4070
461  4125
460  4295
459  3870
458  4010
457  3895
456  4005
455  4470
454  6705
453  12305
452  15540
451  10210
450  4915
449  3645
448  3375
447  5070
446  10425
445  18450
444  18335
443  9520
442  4665
441  2680
440  2440
439  2290
438  1810
437  2060
436  2385
435  2965
434  3035
433  2565
432  2250
431  1805
430  1610
429  1315
428  1575
427  1435
426  1625
425  1405
424  1535
423  1505
422  1475
421  1425
420  1435
419  1390
418  1460
417  1430
416  1305
415  1395
414  1435
413  1475
412  1330
411  1365
410  1290
409  1325
408  1380
407  1370
406  1485
405  1290
404  1325
403  1370
402  1425
401  1395
400  1340
399  1340
398  1345
397  1420
396  1240
395  1365
394  1385
393  1485
392  1425
391  1290
390  1430
389  1275
388  1555
387  1450
386  1360
385  1410
384  1160
383  1450
382  1415
381  1420
380  1670
379  1405
378  1340
377  1440
376  1560
375  1535
374  1445
373  1405
372  1440
371  1355
370  1350
369  1370
368  1350
367  1215
366  1250
365  1225
364  1285
363  1300
362  1300
361  1210
360  1350
359  1280
358  1210
357  1220
356  1180
355  1140
354  1365
353  1410
352  1345
351  1265
350  1280
349  1335
348  1350
347  1210
346  1315
345  1415
344  1305
343  1265
342  1405
341  1230
340  1345
339  1425
338  1325
337  1305
336  1285
335  1215
334  1225
333  1370
332  1440
331  1160
330  1350
329  1305
328  1330
327  1390
326  1215
325  1365
324  1310
323  1135
322  1255
321  1355
320  1260
319  1275
318  1250
317  1505
316  1310
315  1275
314  1235
313  1405
312  1375
311  1385
310  1365
309  1265
308  1215
307  1290
306  1450
305  1370
304  1310
303  1145
302  1230
301  1380
300  1200
299  1405
298  1330
297  1410
296  1280
295  1555
294  1380
293  1410
292  1250
291  1460
290  1380
289  1370
288  1355
287  1380
286  1255
285  1370
284  1340
283  1405
282  1410
281  1325
280  1360
279  1325
278  1350
277  1345
276  1345
275  1395
274  1455
273  1425
272  1315
271  1285
270  1240
269  1430
268  1305
267  1265
266  1540
265  1280
264  1455
263  1315
262  1255
261  1455
260  1250
259  1310
258  1245
257  1430
256  1350
255  1320
254  1375
253  1405
252  1370
251  1355
250  1425
249  1410
248  1270
247  1440
246  1335
245  1405
244  1370
243  1615
242  1415
241  1445
240  1350
239  1360
238  1470
237  1270
236  1480
235  1485
234  1500
233  1380
232  1490
231  1405
230  1400
229  1395
228  1340
227  1405
226  1380
225  1415
224  1300
223  1465
222  1360
221  1360
220  1195
219  1285
218  1265
217  1360
216  1420
215  1590
214  1340
213  1390
212  1360
211  1525
210  1350
209  1400
208  1435
207  1385
206  1445
205  1370
204  1285
203  1460
202  1445
201  1150
200  1475
199  1420
198  1410
197  1600
196  1530
195  1510
194  1395
193  1435
192  1305
191  1375
190  1470
189  1650
188  1300
187  1390
186  1330
185  1465
184  1515
183  1450
182  1415
181  1350
180  1450
179  1520
178  1390
177  1460
176  1325
175  1450
174  1440
173  1480
172  1380
171  1435
170  1405
169  1585
168  1455
167  1635
166  1525
165  1335
164  1565
163  1360
162  1335
161  1345
160  1460
159  1415
158  1455
157  1625
156  1430
155  1520
154  1445
153  1630
152  1530
151  1345
150  1360
149  1415
148  1290
147  1500
146  1435
145  1490
144  1540
143  1500
142  1515
141  1565
140  1390
139  1475
138  1560
137  1540
136  1505
135  1505
134  1285
133  1435
132  1450
131  1540
130  1485
129  1445
128  1600
127  1670
126  1680
125  1800
124  1600
123  1810
122  1735
121  1580
120  1530
119  1590
118  1565
117  1430
116  1450
115  1390
114  1515
113  1570
112  1440
111  1460
110  1450
109  1460
108  1390
107  1425
106  1735
105  1435
104  1510
103  1690
102  1370
101  1600
100  1705
99  1470
98  1380
97  1585
96  1480
95  1540
94  1530
93  1570
92  1545
91  1695
90  1700
89  1625
88  1800
87  1625
86  1945
85  1690
84  1640
83  1935
82  1830
81  1810
80  1850
79  2085
78  1740
77  1625
76  1670
75  1625
74  1665
73  1560
72  1390
71  1330
70  1380
69  1285
68  1250
67  1215
66  1135
65  1290
64  1235
63  1175
62  1095
61  1105
60  1060
59  1130
58  1145
57  1205
56  1045
55  1085
54  1320
53  1025
52  1050
51  990
50  1125
49  1195
48  1130
47  1180
46  1150
45  1090
44  1160
43  1125
42  1260
41  1235
40  1280
39  1205
38  1210
37  1290
36  1180
35  1205
34  1245
33  1095
32  1170
31  1265
30  940
29  1130
28  1430
27  1240
26  1305
25  1225
24  1190
23  1405
22  1225
21  1505
20  2385
19  3410
18  4260
17  3170
16  1665
15  985
14  855
13  810
12  820
11  820
10  880
9  1045
8  1050
7  1025
6  1045
5  1020
4  840
3  740
2  670
1  705
-2.2737368e-013  685
-1  690
-2  665
-3  695
-4  605

# Region:            C1s
# Acquisition Date:  08/25/22 01:02:59 UTC
# Analysis Method:   XPS
# Analyzer:          Phoibos 100 R6
# Analyzer Lens:     LargeArea:1.5kV
# Analyzer Slit:     1:0.2x20\B:open
# Scan Mode:         FixedAnalyzerTransmission
# Curves/Scan:       1
# Values/Curve:      151
# Dwell Time:        0.8
# Excitation Energy: 1486.61
# Binding Energy:    295
# Pass Energy:       30
# Bias Voltage:      90
# Detector Voltage:  2600
# Eff. Workfunction: 4.309
# Source:            X-Ray Dummy
# Comment:
#
# Cycle: 0
# Number of Scans: 50
#
# Cycle: 0, Curve: 0
# Acquisition Date: 08/25/22 01:02:59 UTC
#
# ColumnLabels: energy counts/s
#
295  977.575
294.9  978.425
294.8  981.2
294.7  980.575
294.6  985.95
294.5  972.4
294.4  993.375
294.3  981.9
294.2  989.325
294.1  978.725
294  992.65
293.9  982.525
293.8  984.925
293.7  983.225
293.6  998.875
293.5  985.325
293.4  987.7
293.3  994.025
293.2  987.975
293.1  993.825
293  992.325
292.9  985
292.8  989.575
292.7  985
292.6  995.525
292.5  988.325
292.4  979.3
292.3  987.125
292.2  981.25
292.1  984.25
292  983.8
291.9  989.025
291.8  981.275
291.7  987.625
291.6  977.625
291.5  972.025
291.4  984.1
291.3  988.025
291.2  978.85
291.1  993.125
291  980.6
290.9  971.275
290.8  970
290.7  982.175
290.6  987.55
290.5  978.175
290.4  973.875
290.3  985.55
290.2  990.25
290.1  980.65
290  983.225
289.9  991.475
289.8  981.3
289.7  981.7
289.6  992.875
289.5  990.125
289.4  983.525
289.3  984.425
289.2  989.575
289.1  984.375
289  988.825
288.9  988.925
288.8  988.875
288.7  984.275
288.6  986.55
288.5  985.525
288.4  979.45
288.3  989.7
288.2  981.075
288.1  995
288  984.775
287.9  983.65
287.8  982.075
287.7  993.925
287.6  985.275
287.5  976.725
287.4  984.7
287.3  986.55
287.2  983.65
287.1  990.5
287  989.2
286.9  985.65
286.8  996.375
286.7  991.625
286.6  982.1
286.5  995.35
286.4  990.825
286.3  994.65
286.2  991.4
286.1  989.3
286  990.6
285.9  1002.875
285.8  1003.525
285.7  996.7
285.6  1002.575
285.5  1001.125
285.4  998.15
285.3  1001.2
285.2  1000.2
285.1  1006.4
285  1005.675
284.9  1005.625
284.8  1005.3
284.7  1000.95
284.6  998.6
284.5  1000.975
284.4  1001.3
284.3  997.825
284.2  994.65
284.1  1000.1
284  1008.45
283.9  993.575
283.8  980.725
283.7  990.45
283.6  985.5
283.5  995.375
283.4  987.35
283.3  986.85
283.2  991.45
283.1  990.975
283  974.375
282.9  981.925
282.8  984.4
282.7  977.85
282.6  977.375
282.5  983.15
282.4  978.575
282.3  977.85
282.2  980.75
282.1  978.875
282  970.6
281.9  980.45
281.8  966.725
281.7  969.45
281.6  973
281.5  974.325
281.4  980.825
281.3  971.95
281.2  979.375
281.1  980.275
281  976.525
280.9  971.35
280.8  978.625
280.7  975.175
280.6  989.85
280.5  967.95
280.4  977.975
280.3  985.45
280.2  971.825
280.1  976.725
280  978.825

# Region:            N1s
# Acquisition Date:  08/25/22 01:04:38 UTC
# Analysis Method:   XPS
# Analyzer:          Phoibos 100 R6
# Analyzer Lens:     LargeArea:1.5kV
# Analyzer Slit:     1:0.2x20\B:open
# Scan Mode:         FixedAnalyzerTransmission
# Curves/Scan:       1
# Values/Curve:      121
# Dwell Time:        0.8
# Excitation Energy: 1486.61
# Binding Energy:    409
# Pass Energy:       30
# Bias Voltage:      90
# Detector Voltage:  2600
# Eff. Workfunction: 4.309
# Source:            X-Ray Dummy
# Comment:
#
# Cycle: 0
# Number of Scans: 50
#
# Cycle: 0, Curve: 0
# Acquisition Date: 08/25/22 01:04:38 UTC
#
# ColumnLabels: energy counts/s
#
409  1096.925
408.9  1107.65
408.8  1112.725
408.7  1103.15
408.6  1091.925
408.5  1097.15
408.4  1110.5
408.3  1115.25
408.2  1114.225
408.1  1119.375
408  1115.825
407.9  1120.05
407.8  1113.075
407.7  1122.75
407.6  1120.725
407.5  1118.025
407.4  1117.1
407.3  1127.1
407.2  1123.6
407.1  1119.925
407  1129.6
406.9  1122.525
406.8  1132.075
406.7  1117.525
406.6  1129
406.5  1126.025
406.4  1119.275
406.3  1115.5
406.2  1119.45
406.1  1117.8
406  1109.075
405.9  1108.25
405.8  1107.35
405.7  1111.125
405.6  1100.525
405.5  1096.875
405.4  1109.35
405.3  1094.6
405.2  1106.9
405.1  1109.225
405  1107.725
404.9  1101.025
404.8  1105.625
404.7  1104.95
404.6  1095.375
404.5  1104.025
404.4  1108.3
404.3  1102.375
404.2  1107.35
404.1  1103.075
404  1103.775
403.9  1097
403.8  1102.325
403.7  1102.45
403.6  1100.95
403.5  1097.525
403.4  1096.15
403.3  1101.25
403.2  1099.2
403.1  1106.4
403  1099.975
402.9  1100.025
402.8  1107.425
402.7  1097.35
402.6  1101.65
402.5  1101.7
402.4  1096.575
402.3  1103.575
402.2  1103.8
402.1  1103.075
402  1103.125
401.9  1106.4
401.8  1097.375
401.7  1099.3
401.6  1097.225
401.5  1099.5
401.4  1101.75
401.3  1102.575
401.2  1102.625
401.1  1111.45
401  1109.075
400.9  1107.125
400.8  1115.175
400.7  1118.625
400.6  1116.35
400.5  1117.95
400.4  1099.125
400.3  1113.175
400.2  1118.625
400.1  1113.075
400  1112.275
399.9  1116.175
399.8  1121.475
399.7  1113.5
399.6  1110.075
399.5  1097.95
399.4  1105.55
399.3  1117.925
399.2  1109.425
399.1  1105.625
399  1117.225
398.9  1115.725
398.8  1106.825
398.7  1102.425
398.6  1114.375
398.5  1112.3
398.4  1111.35
398.3  1109.675
398.2  1112.15
398.1  1115.825
398  1113.675
397.9  1111.675
397.8  1098.5
397.7  1107.375
397.6  1094.6
397.5  1106.95
397.4  1102.675
397.3  1106.05
397.2  1095.05
397.1  1098.2
397  1091.55

# Region:            In3d
# Acquisition Date:  08/24/22 22:28:20 UTC
# Analysis Method:   XPS
# Analyzer:          Phoibos 100 R6
# Analyzer Lens:     LargeArea:1.5kV
# Analyzer Slit:     1:0.2x20\B:open
# Scan Mode:         FixedAnalyzerTransmission
# Curves/Scan:       1
# Values/Curve:      231
# Dwell Time:        0.8
# Excitation Energy: 1486.61
# Binding Energy:    460
# Pass Energy:       30
# Bias Voltage:      90
# Detector Voltage:  2600
# Eff. Workfunction: 4.309
# Source:            X-Ray Dummy
# Comment:
#
# Cycle: 0
# Number of Scans: 20
#
# Cycle: 0, Curve: 0
# Acquisition Date: 08/24/22 22:28:20 UTC
#
# ColumnLabels: energy counts/s
#
460  3275.5
459.9  3256.3125
459.8  3257.1875
459.7  3232.75
459.6  3247.4375
459.5  3256.0625
459.4  3225.5625
459.3  3196.5625
459.2  3190.5
459.1  3195.6875
459  3172.5625
458.9  3158.5625
458.8  3164.125
458.7  3165.875
458.6  3174.1875
458.5  3151.4375
458.4  3144.8125
458.3  3153.5625
458.2  3136
458.1  3117.75
458  3115
457.9  3118.4375
457.8  3102.25
457.7  3130
457.6  3123.75
457.5  3085.125
457.4  3090.8125
457.3  3089.9375
457.2  3092.1875
457.1  3074.875
457  3102.5625
456.9  3125.75
456.8  3126.5
456.7  3130.9375
456.6  3135.875
456.5  3153.125
456.4  3134.8125
456.3  3173.0625
456.2  3200.625
456.1  3236.8125
456  3237.625
455.9  3272.875
455.8  3309.0625
455.7  3309.625
455.6  3378.625
455.5  3438
455.4  3471.4375
455.3  3540.1875
455.2  3589.875
455.1  3664.75
455  3768.5
454.9  3843.1875
454.8  3991.1875
454.7  4113.8125
454.6  4252.9375
454.5  4416.75
454.4  4642.6875
454.3  4825.375
454.2  5065.3125
454.1  5324.9375
454  5650.0625
453.9  5977.25
453.8  6371.375
453.7  6762.3125
453.6  7182.0625
453.5  7678.6875
453.4  8248
453.3  8787.4375
453.2  9290.4375
453.1  9891
453  10486.688
452.9  11058.25
452.8  11655.313
452.7  12138.75
452.6  12576.5
452.5  13003.75
452.4  13266.063
452.3  13389
452.2  13545.563
452.1  13419.25
452  13278.688
451.9  12903.375
451.8  12441
451.7  11925
451.6  11318
451.5  10635.375
451.4  9808.875
451.3  9066.3125
451.2  8336
451.1  7570.8125
451  6947.1875
450.9  6274
450.8  5707.5
450.7  5190.625
450.6  4748.875
450.5  4360.75
450.4  3998.875
450.3  3737.5625
450.2  3492.3125
450.1  3331
450  3129.5625
449.9  3051.9375
449.8  2922.75
449.7  2867
449.6  2823.125
449.5  2738
449.4  2702.375
449.3  2686.375
449.2  2638.1875
449.1  2644.75
449  2619.25
448.9  2617.0625
448.8  2622.125
448.7  2639.9375
448.6  2648.9375
448.5  2668.375
448.4  2707.75
448.3  2751.75
448.2  2809.9375
448.1  2857.25
448  2950.6875
447.9  3004.25
447.8  3098.0625
447.7  3179.75
447.6  3281.6875
447.5  3461.1875
447.4  3586.75
447.3  3749.5625
447.2  3911.25
447.1  4163.75
447  4407.5
446.9  4653.9375
446.8  4975.5625
446.7  5326
446.6  5716.3125
446.5  6136.5625
446.4  6618.6875
446.3  7153.1875
446.2  7721.75
446.1  8307.5625
446  9040.8125
445.9  9775.375
445.8  10553.125
445.7  11398.5
445.6  12228.063
445.5  13045.75
445.4  13915.688
445.3  14762.125
445.2  15569.875
445.1  16268.25
445  16838.75
444.9  17308.125
444.8  17673
444.7  17860.375
444.6  17898.938
444.5  17692.375
444.4  17326.313
444.3  16771.25
444.2  16081.188
444.1  15277.813
444  14320.438
443.9  13334.75
443.8  12262.5
443.7  11265.375
443.6  10137.625
443.5  9229.25
443.4  8307.6875
443.3  7475.75
443.2  6736.6875
443.1  6086.625
443  5537.125
442.9  5013.875
442.8  4685
442.7  4324.4375
442.6  4039.9375
442.5  3837.1875
442.4  3657.1875
442.3  3454.6875
442.2  3291.5625
442.1  3201.0625
442  3081.4375
441.9  2984.8125
441.8  2892.625
441.7  2801.0625
441.6  2707.0625
441.5  2648.0625
441.4  2580.875
441.3  2494.125
441.2  2434.0625
441.1  2400.375
441  2353.8125
440.9  2288.625
440.8  2288.6875
440.7  2221.375
440.6  2215.125
440.5  2191.625
440.4  2178.3125
440.3  2137.6875
440.2  2089.75
440.1  2050.625
440  2019.875
439.9  1991.125
439.8  1964.625
439.7  1918.5
439.6  1891.375
439.5  1868.0625
439.4  1839.9375
439.3  1794.6875
439.2  1795.0625
439.1  1750.75
439  1726
438.9  1727.125
438.8  1673
438.7  1674.375
438.6  1644.0625
438.5  1623.75
438.4  1611.375
438.3  1593.4375
438.2  1592.3125
438.1  1595.1875
438  1569.125
437.9  1543.875
437.8  1551.25
437.7  1544.875
437.6  1562.9375
437.5  1555.625
437.4  1560
437.3  1568
437.2  1572.4375
437.1  1580.5
437  1615.1875

# Region:            Sn3d
# Acquisition Date:  08/24/22 22:31:27 UTC
# Analysis Method:   XPS
# Analyzer:          Phoibos 100 R6
# Analyzer Lens:     LargeArea:1.5kV
# Analyzer Slit:     1:0.2x20\B:open
# Scan Mode:         FixedAnalyzerTransmission
# Curves/Scan:       1
# Values/Curve:      231
# Dwell Time:        0.8
# Excitation Energy: 1486.61
# Binding Energy:    503
# Pass Energy:       30
# Bias Voltage:      90
# Detector Voltage:  2600
# Eff. Workfunction: 4.309
# Source:            X-Ray Dummy
# Comment:           PS
#
# Cycle: 0
# Number of Scans: 20
#
# Cycle: 0, Curve: 0
# Acquisition Date: 08/24/22 22:31:27 UTC
#
# ColumnLabels: energy counts/s
#
503  3510.625
502.9  3529.625
502.8  3494.375
502.7  3539.1875
502.6  3481.4375
502.5  3511.5
502.4  3517.1875
502.3  3525.8125
502.2  3491
502.1  3523
502  3515.6875
501.9  3499.9375
501.8  3507.6875
501.7  3514.625
501.6  3514.25
501.5  3517.5
501.4  3481.4375
501.3  3489.125
501.2  3527.0625
501.1  3510.9375
501  3514.375
500.9  3528
500.8  3497.375
500.7  3511.4375
500.6  3512.375
500.5  3500.9375
500.4  3493
500.3  3523.0625
500.2  3513.9375
500.1  3488.9375
500  3507.875
499.9  3483.875
499.8  3486.25
499.7  3506.9375
499.6  3523.75
499.5  3500.75
499.4  3514.625
499.3  3508.1875
499.2  3508.75
499.1  3556
499  3523.9375
498.9  3505.25
498.8  3530.6875
498.7  3530.1875
498.6  3531.75
498.5  3529.6875
498.4  3518.5625
498.3  3537.9375
498.2  3540.875
498.1  3561
498  3565.3125
497.9  3581.125
497.8  3595.5625
497.7  3596.6875
497.6  3620.875
497.5  3659.25
497.4  3648.3125
497.3  3644.5625
497.2  3712.6875
497.1  3733.75
497  3745.125
496.9  3776.625
496.8  3798.8125
496.7  3817.625
496.6  3864.1875
496.5  3919.1875
496.4  3961.75
496.3  3989.3125
496.2  4005.5
496.1  4062.625
496  4157.8125
495.9  4199.5
495.8  4248.5625
495.7  4284.375
495.6  4315.875
495.5  4343.625
495.4  4382.1875
495.3  4380.25
495.2  4396.8125
495.1  4420.5
495  4401.75
494.9  4348.5
494.8  4273.875
494.7  4266.125
494.6  4208.9375
494.5  4145.0625
494.4  4100.5625
494.3  4003.125
494.2  3935.4375
494.1  3883.9375
494  3848.3125
493.9  3782
493.8  3717.875
493.7  3703.3125
493.6  3606.875
493.5  3587.5625
493.4  3567.25
493.3  3557.375
493.2  3512.875
493.1  3502.4375
493  3507.8125
492.9  3466.5625
492.8  3456.8125
492.7  3449.5
492.6  3450
492.5  3427.75
492.4  3431.3125
492.3  3434.5625
492.2  3428.875
492.1  3417.9375
492  3403.0625
491.9  3419.9375
491.8  3417.25
491.7  3388.875
491.6  3407.375
491.5  3421.9375
491.4  3401.375
491.3  3396.8125
491.2  3391.0625
491.1  3397.3125
491  3402.875
490.9  3398.0625
490.8  3438.25
490.7  3422.9375
490.6  3405.875
490.5  3458.6875
490.4  3413.75
490.3  3422.3125
490.2  3440.625
490.1  3457.0625
490  3449.25
489.9  3457.875
489.8  3488.25
489.7  3461.75
489.6  3474.5
489.5  3511.25
489.4  3537.5
489.3  3534.3125
489.2  3574.25
489.1  3613.375
489  3638.75
488.9  3647.75
488.8  3658.5
488.7  3692.75
488.6  3776.8125
488.5  3753.6875
488.4  3854.8125
488.3  3922.8125
488.2  3951.9375
488.1  3989.4375
488  4079.8125
487.9  4135.8125
487.8  4209.6875
487.7  4288
487.6  4320.3125
487.5  4407.0625
487.4  4445.8125
487.3  4526.25
487.2  4635.8125
487.1  4657.625
487  4657.5625
486.9  4743.3125
486.8  4740.0625
486.7  4722.375
486.6  4730.8125
486.5  4709.5625
486.4  4685.75
486.3  4611.375
486.2  4543.4375
486.1  4453.0625
486  4387.5
485.9  4288
485.8  4207.8125
485.7  4098.125
485.6  4036.5625
485.5  3965
485.4  3874.5
485.3  3844.625
485.2  3754
485.1  3715.4375
485  3675.3125
484.9  3639.125
484.8  3597.375
484.7  3532.75
484.6  3501.375
484.5  3517.25
484.4  3506.125
484.3  3470.4375
484.2  3436.875
484.1  3484.4375
484  3459.8125
483.9  3450.375
483.8  3415
483.7  3435.5
483.6  3424.1875
483.5  3396.375
483.4  3403.1875
483.3  3433.8125
483.2  3394.5625
483.1  3399.5
483  3413.9375
482.9  3387.6875
482.8  3407.25
482.7  3380.125
482.6  3386.5625
482.5  3393.6875
482.4  3393.25
482.3  3388.375
482.2  3382.1875
482.1  3394.3125
482  3382.1875
481.9  3370.3125
481.8  3387.1875
481.7  3378.9375
481.6  3373.1875
481.5  3402.3125
481.4  3379.5
481.3  3356.9375
481.2  3398.625
481.1  3373.5
481  3381.5625
480.9  3375.0625
480.8  3395.5625
480.7  3375.8125
480.6  3374.0625
480.5  3371.75
480.4  3372.8125
480.3  3370.625
480.2  3386.6875
480.1  3390
480  3375.0625

# Region:            Na1s
# Acquisition Date:  08/24/22 19:49:07 UTC
# Analysis Method:   XPS
# Analyzer:          Phoibos 100 R6
# Analyzer Lens:     LargeArea:1.5kV
# Analyzer Slit:     1:0.2x20\B:open
# Scan Mode:         FixedAnalyzerTransmission
# Curves/Scan:       1
# Values/Curve:      201
# Dwell Time:        0.8
# Excitation Energy: 1486.61
# Binding Energy:    1085
# Pass Energy:       30
# Bias Voltage:      90
# Detector Voltage:  2600
# Eff. Workfunction: 4.309
# Source:            X-Ray Dummy
# Comment:
#
# Cycle: 0
# Number of Scans: 10
#
# Cycle: 0, Curve: 0
# Acquisition Date: 08/24/22 19:49:07 UTC
#
# ColumnLabels: energy counts/s
#
1085  13410
1084.9  13250.5
1084.8  13164.875
1084.7  13047.875
1084.6  12917.375
1084.5  12741.125
1084.4  12693
1084.3  12580.625
1084.2  12436.875
1084.1  12310.25
1084  12185
1083.9  12029.375
1083.8  11942.5
1083.7  11717.625
1083.6  11544.25
1083.5  11508.75
1083.4  11375.25
1083.3  11335.125
1083.2  11180.5
1083.1  11086.125
1083  10984.375
1082.9  10906.125
1082.8  10856.25
1082.7  10751
1082.6  10676.625
1082.5  10665
1082.4  10581.125
1082.3  10619
1082.2  10606.25
1082.1  10603
1082  10580.375
1081.9  10651.25
1081.8  10580.375
1081.7  10704.25
1081.6  10696.75
1081.5  10779.375
1081.4  10834.625
1081.3  10924
1081.2  10996.125
1081.1  11081.75
1081  11266.25
1080.9  11309.375
1080.8  11330
1080.7  11446.25
1080.6  11629.25
1080.5  11586.75
1080.4  11751.375
1080.3  11857.125
1080.2  11858
1080.1  11905.875
1080  11930
1079.9  11903.375
1079.8  11936.125
1079.7  11902.75
1079.6  11896.25
1079.5  11823.125
1079.4  11684.5
1079.3  11599.75
1079.2  11484.75
1079.1  11308
1079  11197.5
1078.9  11076.75
1078.8  10984.125
1078.7  10897.5
1078.6  10692.5
1078.5  10583.625
1078.4  10452.75
1078.3  10369.875
1078.2  10098.875
1078.1  10187.5
1078  10010.625
1077.9  9885.375
1077.8  9768.875
1077.7  9668.625
1077.6  9597.5
1077.5  9455.375
1077.4  9410.5
1077.3  9204.625
1077.2  9143.75
1077.1  9036.125
1077  8971.75
1076.9  8880.625
1076.8  8841.5
1076.7  8722
1076.6  8634.25
1076.5  8569
1076.4  8508.5
1076.3  8458.75
1076.2  8411
1076.1  8337.375
1076  8297.75
1075.9  8212.875
1075.8  8184.625
1075.7  8104.875
1075.6  8063.5
1075.5  8050.875
1075.4  8044.75
1075.3  7940.75
1075.2  7945.625
1075.1  7875
1075  7951.125
1074.9  7798.125
1074.8  7822
1074.7  7795.875
1074.6  7732.875
1074.5  7770
1074.4  7716.125
1074.3  7703.625
1074.2  7666.875
1074.1  7575.75
1074  7634.75
1073.9  7615
1073.8  7571.5
1073.7  7559.75
1073.6  7629.5
1073.5  7544.875
1073.4  7513.375
1073.3  7526.125
1073.2  7537.75
1073.1  7517.625
1073  7515.375
1072.9  7507.875
1072.8  7478.625
1072.7  7537.25
1072.6  7558.75
1072.5  7557.25
1072.4  7510.625
1072.3  7471.125
1072.2  7520.125
1072.1  7505.875
1072  7542.875
1071.9  7496.25
1071.8  7582.5
1071.7  7527.625
1071.6  7599.625
1071.5  7541
1071.4  7548
1071.3  7589.25
1071.2  7521.625
1071.1  7537.625
1071  7555.75
1070.9  7646.25
1070.8  7594.25
1070.7  7577.125
1070.6  7554.375
1070.5  7546.125
1070.4  7577.5
1070.3  7637
1070.2  7573.25
1070.1  7577.125
1070  7566.875
1069.9  7598.875
1069.8  7526.375
1069.7  7540.375
1069.6  7556.625
1069.5  7563.5
1069.4  7616.5
1069.3  7572.125
1069.2  7556
1069.1  7508.375
1069  7564.375
1068.9  7610
1068.8  7578.125
1068.7  7587.875
1068.6  7583.25
1068.5  7541.125
1068.4  7589
1068.3  7575.75
1068.2  7566.5
1068.1  7587.375
1068  7567.5
1067.9  7631.125
1067.8  7579.5
1067.7  7641.25
1067.6  7612.75
1067.5  7621.875
1067.4  7633.375
1067.3  7572.125
1067.2  7601.5
1067.1  7546.25
1067  7584.875
1066.9  7621.5
1066.8  7620.875
1066.7  7601.5
1066.6  7531.5
1066.5  7586.25
1066.4  7529.75
1066.3  7548
1066.2  7598.125
1066.1  7563.875
1066  7552.875
1065.9  7589.5
1065.8  7516.375
1065.7  7573.25
1065.6  7531.625
1065.5  7511.125
1065.4  7531.125
1065.3  7518.5
1065.2  7522.125
1065.1  7529.625
1065  7532.75

# Region:            Ba3d
# Acquisition Date:  08/24/22 22:33:06 UTC
# Analysis Method:   XPS
# Analyzer:          Phoibos 100 R6
# Analyzer Lens:     LargeArea:1.5kV
# Analyzer Slit:     1:0.2x20\B:open
# Scan Mode:         FixedAnalyzerTransmission
# Curves/Scan:       1
# Values/Curve:      121
# Dwell Time:        0.8
# Excitation Energy: 1486.61
# Binding Energy:    789
# Pass Energy:       30
# Bias Voltage:      90
# Detector Voltage:  2600
# Eff. Workfunction: 4.309
# Source:            X-Ray Dummy
# Comment:
#
# Cycle: 0
# Number of Scans: 20
#
# Cycle: 0, Curve: 0
# Acquisition Date: 08/24/22 22:33:06 UTC
#
# ColumnLabels: energy counts/s
#
789  5247.8125
788.9  5292.1875
788.8  5281.9375
788.7  5252.5
788.6  5271.125
788.5  5276.125
788.4  5302.6875
788.3  5256.4375
788.2  5273.125
788.1  5269.1875
788  5249.875
787.9  5273.9375
787.8  5249.9375
787.7  5288.625
787.6  5293.4375
787.5  5304.8125
787.4  5286.6875
787.3  5275.3125
787.2  5282.125
787.1  5288.9375
787  5273.0625
786.9  5274.5
786.8  5258.3125
786.7  5251.5625
786.6  5303.0625
786.5  5235.4375
786.4  5245.375
786.3  5274.4375
786.2  5281.25
786.1  5261.6875
786  5254.5
785.9  5265.125
785.8  5272.9375
785.7  5273.1875
785.6  5284.125
785.5  5252.75
785.4  5277.4375
785.3  5233.0625
785.2  5268
785.1  5282.5
785  5255.25
784.9  5277.375
784.8  5255.6875
784.7  5267.0625
784.6  5259.6875
784.5  5254.1875
784.4  5300.25
784.3  5272.3125
784.2  5307.0625
784.1  5261
784  5281.4375
783.9  5286
783.8  5279.875
783.7  5224.4375
783.6  5273.3125
783.5  5254.625
783.4  5292.375
783.3  5249.4375
783.2  5253.625
783.1  5264.6875
783  5284.0625
782.9  5293.6875
782.8  5279.4375
782.7  5294.0625
782.6  5281.5
782.5  5271.75
782.4  5287.125
782.3  5278.3125
782.2  5291.125
782.1  5285.375
782  5234.8125
781.9  5255.9375
781.8  5270.4375
781.7  5261.8125
781.6  5235.5625
781.5  5294.75
781.4  5270.125
781.3  5253.8125
781.2  5252.5
781.1  5313.125
781  5297.4375
780.9  5269.5625
780.8  5254.6875
780.7  5281.1875
780.6  5296.9375
780.5  5277.5
780.4  5273.1875
780.3  5299.875
780.2  5297
780.1  5275.375
780  5252.6875
779.9  5288.0625
779.8  5284.8125
779.7  5284.5625
779.6  5284.5625
779.5  5292.5625
779.4  5287.875
779.3  5309.875
779.2  5274.4375
779.1  5276.5625
779  5286.0625
778.9  5307.1875
778.8  5283
778.7  5267.625
778.6  5242.25
778.5  5299.25
778.4  5298.5625
778.3  5263.0625
778.2  5300.5625
778.1  5280.8125
778  5236.9375
777.9  5287.125
777.8  5273.5625
777.7  5289.375
777.6  5287.875
777.5  5278.375
777.4  5260.6875
777.3  5284.1875
777.2  5247.0625
777.1  5289.4375
777  5243.4375

# Region:            Cl2p
# Acquisition Date:  08/24/22 22:34:37 UTC
# Analysis Method:   XPS
# Analyzer:          Phoibos 100 R6
# Analyzer Lens:     LargeArea:1.5kV
# Analyzer Slit:     1:0.2x20\B:open
# Scan Mode:         FixedAnalyzerTransmission
# Curves/Scan:       1
# Values/Curve:      111
# Dwell Time:        0.8
# Excitation Energy: 1486.61
# Binding Energy:    207
# Pass Energy:       30
# Bias Voltage:      90
# Detector Voltage:  2600
# Eff. Workfunction: 4.309
# Source:            X-Ray Dummy
# Comment:
#
# Cycle: 0
# Number of Scans: 20
#
# Cycle: 0, Curve: 0
# Acquisition Date: 08/24/22 22:34:37 UTC
#
# ColumnLabels: energy counts/s
#
207  966.4375
206.9  962.5
206.8  970.1875
206.7  966.875
206.6  989.125
206.5  989.1875
206.4  972.1875
206.3  965.3125
206.2  974.25
206.1  980.4375
206  968.25
205.9  969.25
205.8  967.8125
205.7  956.875
205.6  974.875
205.5  984.3125
205.4  976.4375
205.3  957.25
205.2  978.1875
205.1  970.3125
205  973.9375
204.9  987.1875
204.8  972
204.7  975.3125
204.6  966.1875
204.5  969.625
204.4  963.375
204.3  969.5625
204.2  975.8125
204.1  968.875
204  965.25
203.9  968.9375
203.8  971.3125
203.7  955.625
203.6  974.5625
203.5  969.25
203.4  971.3125
203.3  976.25
203.2  979
203.1  968.375
203  967.3125
202.9  962.5625
202.8  970.5625
202.7  977.125
202.6  971.75
202.5  966.5
202.4  963.25
202.3  975.125
202.2  977.8125
202.1  974.8125
202  969.4375
201.9  978.5
201.8  972.375
201.7  985.9375
201.6  975
201.5  976.5
201.4  964.25
201.3  981.5625
201.2  963
201.1  974.5625
201  984.4375
200.9  974.5625
200.8  976.25
200.7  968.1875
200.6  972.6875
200.5  986.8125
200.4  966.5625
200.3  983.5
200.2  961.3125
200.1  986.375
200  985
199.9  975
199.8  985.9375
199.7  976.4375
199.6  976.25
199.5  974.375
199.4  972.25
199.3  971.125
199.2  978.375
199.1  970.3125
199  972.6875
198.9  989
198.8  1003.1875
198.7  991.25
198.6  999.6875
198.5  1002
198.4  984.3125
198.3  980.4375
198.2  980.6875
198.1  988.25
198  982.75
197.9  981.0625
197.8  991.125
197.7  991.5
197.6  976.4375
197.5  986
197.4  980.5
197.3  984.1875
197.2  984.75
197.1  987.25
197  978.375
196.9  971.6875
196.8  982.4375
196.7  976.5625
196.6  979.3125
196.5  980.5625
196.4  977.625
196.3  969.1875
196.2  976.125
196.1  986.4375
196  975.6875

# Region:            Si2p
# Acquisition Date:  08/24/22 22:35:51 UTC
# Analysis Method:   XPS
# Analyzer:          Phoibos 100 R6
# Analyzer Lens:     LargeArea:1.5kV
# Analyzer Slit:     1:0.2x20\B:open
# Scan Mode:         FixedAnalyzerTransmission
# Curves/Scan:       1
# Values/Curve:      91
# Dwell Time:        0.8
# Excitation Energy: 1486.61
# Binding Energy:    109
# Pass Energy:       30
# Bias Voltage:      90
# Detector Voltage:  2600
# Eff. Workfunction: 4.309
# Source:            X-Ray Dummy
# Comment:
#
# Cycle: 0
# Number of Scans: 20
#
# Cycle: 0, Curve: 0
# Acquisition Date: 08/24/22 22:35:51 UTC
#
# ColumnLabels: energy counts/s
#
109  981.75
108.9  988.75
108.8  984.1875
108.7  993.5625
108.6  966.875
108.5  981.625
108.4  980.4375
108.3  984.0625
108.2  992.5625
108.1  971.25
108  982.6875
107.9  980.0625
107.8  982.125
107.7  981
107.6  982.75
107.5  990.875
107.4  971.75
107.3  986.5625
107.2  979.3125
107.1  995.375
107  986.6875
106.9  991
106.8  978.0625
106.7  996.5
106.6  983.5
106.5  1004.25
106.4  984.5
106.3  985.25
106.2  997.625
106.1  980.625
106  982.25
105.9  995.3125
105.8  990.9375
105.7  982.125
105.6  996.625
105.5  988.5625
105.4  1001.3125
105.3  990.875
105.2  993.8125
105.1  990.3125
105  1011.9375
104.9  988.75
104.8  1002.625
104.7  993.625
104.6  1003.875
104.5  1002.5625
104.4  1003.8125
104.3  992.8125
104.2  1001.1875
104.1  996.6875
104  1007.8125
103.9  1008.9375
103.8  1020.8125
103.7  998
103.6  1001.0625
103.5  1000.125
103.4  995.4375
103.3  1013.5
103.2  1006.5
103.1  998.75
103  1016.1875
102.9  1008.3125
102.8  1012.875
102.7  1000.1875
102.6  1008.9375
102.5  1019.5625
102.4  1005.875
102.3  1005.9375
102.2  1006.375
102.1  1011.6875
102  1004.8125
101.9  1022.8125
101.8  1009
101.7  1006.9375
101.6  1003.125
101.5  997.3125
101.4  1008.3125
101.3  1018.25
101.2  1016.4375
101.1  1011.1875
101  1018.0625
100.9  1012.8125
100.8  1002.625
100.7  1010.0625
100.6  1011.75
100.5  1007.6875
100.4  1003.5625
100.3  1019.875
100.2  1019.125
100.1  1010
100  1002.3125

# Group:             overview_HD
#
# Region:            overview_HD
# Acquisition Date:  08/25/22 07:56:00 UTC
# Analysis Method:   XPS
# Analyzer:          Phoibos 100 R6
# Analyzer Lens:     LargeArea:1.5kV
# Analyzer Slit:     1:0.2x20\B:open
# Scan Mode:         FixedAnalyzerTransmission
# Curves/Scan:       1
# Values/Curve:      6021
# Dwell Time:        0.4
# Excitation Energy: 1486.61
# Binding Energy:    1200
# Pass Energy:       30
# Bias Voltage:      90
# Detector Voltage:  2600
# Eff. Workfunction: 4.309
# Source:            X-Ray Dummy
# Comment:
#
# Cycle: 0
# Number of Scans: 10
#
# Cycle: 0, Curve: 0
# Acquisition Date: 08/25/22 07:56:00 UTC
#
# ColumnLabels: energy counts/s
#
1200  11361.75
1199.8  11353.5
1199.6  11426.25
1199.4  11285.75
1199.2  11409.5
1199  11376.75
1198.8  11445
1198.6  11380.75
1198.4  11317.25
1198.2  11389
1198  11420
1197.8  11421.5
1197.6  11475.25
1197.4  11438.5
1197.2  11451.25
1197  11453.25
1196.8  11498.75
1196.6  11454.25
1196.4  11416.75
1196.2  11452.25
1196  11541.75
1195.8  11547.5
1195.6  11393.25
1195.4  11517.5
1195.2  11599
1195  11546
1194.8  11465.5
1194.6  11589.75
1194.4  11557.25
1194.2  11535.75
1194  11504
1193.8  11691.25
1193.6  11598
1193.4  11662.75
1193.2  11688.5
1193  11725.25
1192.8  11668.75
1192.6  11595.75
1192.4  11653.75
1192.2  11724.75
1192  11565
1191.8  11613.25
1191.6  11631.5
1191.4  11631.25
1191.2  11501.75
1191  11648.75
1190.8  11566.5
1190.6  11645.75
1190.4  11442.5
1190.2  11490
1190  11445.5
1189.8  11459.5
1189.6  11442.5
1189.4  11417.5
1189.2  11415.25
1189  11336.75
1188.8  11271.75
1188.6  11261
1188.4  11275.75
1188.2  11288.5
1188  11271.25
1187.8  11291.75
1187.6  11299.5
1187.4  11091
1187.2  11139
1187  11227
1186.8  11284
1186.6  11191.75
1186.4  11105.5
1186.2  11163.25
1186  11207.75
1185.8  11095.25
1185.6  11167
1185.4  11146.5
1185.2  11075.25
1185  11161
1184.8  11082
1184.6  10988.5
1184.4  11031
1184.2  11070
1184  11118.75
1183.8  10947
1183.6  10952.75
1183.4  10937.25
1183.2  10918.75
1183  10942.75
1182.8  10911.75
1182.6  10956.5
1182.4  10824.75
1182.2  10903.25
1182  10801
1181.8  10908.5
1181.6  10901.25
1181.4  10859.5
1181.2  10791.5
1181  10777.5
1180.8  10792.25
1180.6  10761.25
1180.4  10782.5
1180.2  10761
1180  10827.25
1179.8  10815
1179.6  10670.75
1179.4  10742.25
1179.2  10675.75
1179  10788.5
1178.8  10823
1178.6  10732.5
1178.4  10837.25
1178.2  10732.25
1178  10695.25
1177.8  10779
1177.6  10786.5
1177.4  10690.75
1177.2  10783.75
1177  10782.5
1176.8  10821.75
1176.6  10822.25
1176.4  10826.75
1176.2  10711
1176  10802.5
1175.8  10700.75
1175.6  10786.75
1175.4  10775
1175.2  10779.5
1175  10866.75
1174.8  10750
1174.6  10681.75
1174.4  10903
1174.2  10774.75
1174  10836.25
1173.8  10859.75
1173.6  10937.5
1173.4  10847
1173.2  10925
1173  10903.5
1172.8  10815
1172.6  10875.5
1172.4  10867
1172.2  10748.75
1172  10768.5
1171.8  10950.75
1171.6  10859
1171.4  10853
1171.2  10799
1171  10819
1170.8  10983.75
1170.6  10865.75
1170.4  10917.75
1170.2  10857.25
1170  10925.75
1169.8  10844.75
1169.6  10903.25
1169.4  10877.75
1169.2  10902
1169  10901.25
1168.8  10991.25
1168.6  11010.25
1168.4  10919
1168.2  10998.5
1168  10880.75
1167.8  10957
1167.6  11055
1167.4  10910.75
1167.2  10910
1167  11039
1166.8  11085.5
1166.6  10974.75
1166.4  11007.75
1166.2  10946.75
1166  10975.25
1165.8  11044.25
1165.6  10971
1165.4  11091
1165.2  11028.25
1165  11063
1164.8  10957.75
1164.6  10996.25
1164.4  10976.5
1164.2  11020.75
1164  11069.25
1163.8  11076.25
1163.6  11135.25
1163.4  11001.75
1163.2  11051.5
1163  11062.75
1162.8  11100.75
1162.6  11078.25
1162.4  11075.5
1162.2  11173.5
1162  11164.75
1161.8  11081.25
1161.6  11066.75
1161.4  11169
1161.2  11182
1161  11213.5
1160.8  11211
1160.6  11180
1160.4  11168.25
1160.2  11056
1160  11241.5
1159.8  11166
1159.6  11126.75
1159.4  11251.5
1159.2  11194.75
1159  11127
1158.8  11279
1158.6  11233
1158.4  11185.25
1158.2  11205.25
1158  11116.25
1157.8  11176
1157.6  11164.5
1157.4  11094
1157.2  11158.75
1157  11206.5
1156.8  11144
1156.6  11096
1156.4  11234.5
1156.2  11083.75
1156  11164
1155.8  11229
1155.6  11241
1155.4  11199.25
1155.2  11250.25
1155  11238.75
1154.8  11287.5
1154.6  11220.25
1154.4  11189
1154.2  11229.25
1154  11139
1153.8  11161.25
1153.6  11250.25
1153.4  11183.25
1153.2  11127.5
1153  11246.75
1152.8  11145
1152.6  11154.25
1152.4  11096.75
1152.2  11289.25
1152  11169.5
1151.8  11249.5
1151.6  11168.75
1151.4  11203.25
1151.2  11095.5
1151  11118.5
1150.8  11177.75
1150.6  11047.75
1150.4  11038.75
1150.2  11140.5
1150  11051.5
1149.8  11192.25
1149.6  11048.25
1149.4  11160.75
1149.2  10987.75
1149  11025.5
1148.8  11211
1148.6  10945
1148.4  11107.75
1148.2  11007.25
1148  11057
1147.8  11019.25
1147.6  11023.5
1147.4  10960.5
1147.2  10943.75
1147  11055.75
1146.8  10999.75
1146.6  11121
1146.4  10849
1146.2  10900
1146  10956.75
1145.8  10975.75
1145.6  10941.25
1145.4  10875.5
1145.2  10892.25
1145  10810.5
1144.8  10942
1144.6  10837.25
1144.4  10751
1144.2  10786.75
1144  10822.25
1143.8  10781.25
1143.6  10726
1143.4  10695.25
1143.2  10678.25
1143  10608.5
1142.8  10721.25
1142.6  10673.5
1142.4  10675.75
1142.2  10569.75
1142  10519.5
1141.8  10448.75
1141.6  10494.5
1141.4  10383.75
1141.2  10339.5
1141  10289.5
1140.8  10410.5
1140.6  10491.25
1140.4  10320.25
1140.2  10337.5
1140  10239
1139.8  10229
1139.6  10193.5
1139.4  10086.25
1139.2  10157.25
1139  10035.5
1138.8  10106.25
1138.6  10121.75
1138.4  10042.75
1138.2  9945.25
1138  9965.75
1137.8  10031.5
1137.6  9870.5
1137.4  9916
1137.2  9895.5
1137  9829.5
1136.8  9850.5
1136.6  9830.5
1136.4  9797
1136.2  9748.25
1136  9748.75
1135.8  9646.75
1135.6  9746
1135.4  9587
1135.2  9611.25
1135  9706.5
1134.8  9517
1134.6  9596.25
1134.4  9574.5
1134.2  9441
1134  9515
1133.8  9455.75
1133.6  9457.75
1133.4  9513.75
1133.2  9411.75
1133  9451
1132.8  9409.25
1132.6  9364
1132.4  9417.75
1132.2  9382.5
1132  9299.5
1131.8  9399
1131.6  9304.25
1131.4  9434.75
1131.2  9233.5
1131  9345.5
1130.8  9282.75
1130.6  9231.5
1130.4  9218.5
1130.2  9382.5
1130  9227.75
1129.8  9260.5
1129.6  9201.25
1129.4  9234.5
1129.2  9181
1129  9098.25
1128.8  9233.25
1128.6  9152.25
1128.4  9207
1128.2  9168
1128  9278
1127.8  9196.5
1127.6  9200
1127.4  9162.75
1127.2  9129.25
1127  9103.75
1126.8  9175.5
1126.6  9133.75
1126.4  9143.5
1126.2  9091.75
1126  9187.25
1125.8  9144
1125.6  9073
1125.4  9185.5
1125.2  9166.5
1125  9177.5
1124.8  9136.75
1124.6  9039
1124.4  9068.5
1124.2  9173.25
1124  9125.5
1123.8  9093.75
1123.6  9084.75
1123.4  9088
1123.2  9123
1123  9129.75
1122.8  9107.5
1122.6  9096.75
1122.4  9089.75
1122.2  9171
1122  9080.5
1121.8  9036
1121.6  9147
1121.4  9161.5
1121.2  9055.75
1121  9125.25
1120.8  9118.25
1120.6  9040
1120.4  9119.75
1120.2  9113
1120  9171.5
1119.8  9108.25
1119.6  9041.25
1119.4  9049.25
1119.2  9045.5
1119  9107
1118.8  9065.5
1118.6  9222.75
1118.4  9155
1118.2  9106.25
1118  9084
1117.8  9054.25
1117.6  9152.75
1117.4  9086
1117.2  9158.75
1117  9052.75
1116.8  9104.75
1116.6  9154
1116.4  9139
1116.2  9130.5
1116  9148.5
1115.8  9152.25
1115.6  9071.5
1115.4  9127.5
1115.2  9116.75
1115  9062
1114.8  9137.75
1114.6  9146.5
1114.4  9078.5
1114.2  9134.5
1114  9016.5
1113.8  9196
1113.6  9058
1113.4  9105
1113.2  9130.5
1113  9094.25
1112.8  9203.5
1112.6  9162.5
1112.4  9151.25
1112.2  9159.75
1112  9070.5
1111.8  9148.75
1111.6  9170.75
1111.4  9126.5
1111.2  9105.75
1111  9156
1110.8  9229.75
1110.6  9210.75
1110.4  9147.25
1110.2  9168.5
1110  9131.25
1109.8  9156.5
1109.6  9129.25
1109.4  9196.5
1109.2  9189
1109  9144
1108.8  9166.25
1108.6  9170.5
1108.4  9248
1108.2  9147
1108  9243.5
1107.8  9236
1107.6  9193.25
1107.4  9211.75
1107.2  9169
1107  9152.75
1106.8  9235.25
1106.6  9185
1106.4  9174.5
1106.2  9225.75
1106  9301.25
1105.8  9220.25
1105.6  9319
1105.4  9205.5
1105.2  9208.25
1105  9288
1104.8  9185
1104.6  9249.5
1104.4  9216
1104.2  9247.25
1104  9283.5
1103.8  9246
1103.6  9217.25
1103.4  9285.25
1103.2  9221.75
1103  9299.5
1102.8  9179.5
1102.6  9316.25
1102.4  9302
1102.2  9255.25
1102  9256.5
1101.8  9269.25
1101.6  9253.75
1101.4  9365
1101.2  9258.75
1101  9335.25
1100.8  9258.25
1100.6  9321.75
1100.4  9270.25
1100.2  9290.75
1100  9246.5
1099.8  9310.75
1099.6  9334
1099.4  9374.5
1099.2  9372.75
1099  9464.25
1098.8  9493.75
1098.6  9368.25
1098.4  9414.5
1098.2  9369
1098  9339.75
1097.8  9427.25
1097.6  9424
1097.4  9496.75
1097.2  9445
1097  9580.25
1096.8  9446.25
1096.6  9496.75
1096.4  9488
1096.2  9442.75
1096  9509.25
1095.8  9562.5
1095.6  9563
1095.4  9557.75
1095.2  9515
1095  9642.25
1094.8  9621.75
1094.6  9665.25
1094.4  9645.75
1094.2  9776.75
1094  9727.25
1093.8  9731.5
1093.6  9852.25
1093.4  9837.25
1093.2  9919.5
1093  9894.5
1092.8  10025.75
1092.6  10114.5
1092.4  10154.5
1092.2  10175.25
1092  10380.5
1091.8  10380.25
1091.6  10303
1091.4  10574.25
1091.2  10533.5
1091  10448
1090.8  10632
1090.6  10644.75
1090.4  10772.25
1090.2  10880
1090  11001
1089.8  11323.75
1089.6  11391.75
1089.4  11625.75
1089.2  11722.5
1089  11965
1088.8  12304
1088.6  12775
1088.4  13084
1088.2  13518.5
1088  13630
1087.8  13852.5
1087.6  14071.5
1087.4  14145.5
1087.2  14244.5
1087  14308.75
1086.8  14353.75
1086.6  14248
1086.4  13962.25
1086.2  14076.75
1086  13989
1085.8  13792.25
1085.6  13634
1085.4  13554.5
1085.2  13305.5
1085  13096.25
1084.8  12925
1084.6  12647
1084.4  12427.25
1084.2  12069
1084  11873.5
1083.8  11638.75
1083.6  11366.75
1083.4  11138.75
1083.2  11041.25
1083  10894.5
1082.8  10698.75
1082.6  10575.25
1082.4  10588
1082.2  10436.25
1082  10646.5
1081.8  10614.5
1081.6  10669
1081.4  10725.75
1081.2  10913.25
1081  11239.75
1080.8  11350.25
1080.6  11544.25
1080.4  11716
1080.2  11787.75
1080  11847.5
1079.8  11767.75
1079.6  11604
1079.4  11401
1079.2  11153.5
1079  11002.25
1078.8  10712
1078.6  10440.75
1078.4  10286.25
1078.2  9951.25
1078  9745
1077.8  9691.75
1077.6  9365.5
1077.4  9137.5
1077.2  9073.5
1077  8769.5
1076.8  8716
1076.6  8490.5
1076.4  8418.25
1076.2  8310.5
1076  8117.75
1075.8  8030.75
1075.6  7932.25
1075.4  7875.25
1075.2  7768.5
1075  7715.75
1074.8  7675.5
1074.6  7665.75
1074.4  7637.25
1074.2  7484.5
1074  7549.25
1073.8  7509
1073.6  7432.75
1073.4  7351
1073.2  7394.25
1073  7346.25
1072.8  7433.5
1072.6  7433.5
1072.4  7384.25
1072.2  7431.5
1072  7397
1071.8  7379.75
1071.6  7533.25
1071.4  7462.25
1071.2  7447.25
1071  7464.25
1070.8  7489.25
1070.6  7423
1070.4  7388.25
1070.2  7422.75
1070  7441
1069.8  7453.25
1069.6  7386
1069.4  7440.75
1069.2  7520
1069  7394.5
1068.8  7523.5
1068.6  7483
1068.4  7505
1068.2  7465
1068  7453.25
1067.8  7488.25
1067.6  7495.25
1067.4  7547.75
1067.2  7527.5
1067  7487.5
1066.8  7496
1066.6  7487.25
1066.4  7447.5
1066.2  7406
1066  7466.25
1065.8  7429.75
1065.6  7442.25
1065.4  7399.75
1065.2  7401.75
1065  7537.75
1064.8  7467.25
1064.6  7455.75
1064.4  7387.25
1064.2  7400.75
1064  7511.75
1063.8  7385.25
1063.6  7516.5
1063.4  7469.25
1063.2  7612
1063  7586
1062.8  7492
1062.6  7630.25
1062.4  7545.25
1062.2  7556.75
1062  7643
1061.8  7576.5
1061.6  7520.75
1061.4  7584
1061.2  7556
1061  7514.75
1060.8  7505.75
1060.6  7629.75
1060.4  7462.25
1060.2  7574.5
1060  7427
1059.8  7419
1059.6  7385.75
1059.4  7371
1059.2  7317.25
1059  7245
1058.8  7246.75
1058.6  7226
1058.4  7227.25
1058.2  7162
1058  7082.25
1057.8  7093.75
1057.6  7050.25
1057.4  6973.75
1057.2  6975.25
1057  6940
1056.8  6859
1056.6  6926
1056.4  6895.75
1056.2  6813.25
1056  6920
1055.8  6855.25
1055.6  6947.5
1055.4  6898.5
1055.2  7024.75
1055  7014.25
1054.8  6920.25
1054.6  7005.75
1054.4  6979
1054.2  6985.5
1054  6991.5
1053.8  6863
1053.6  6984
1053.4  6882.25
1053.2  6927.75
1053  6872
1052.8  6765
1052.6  6817.75
1052.4  6760.5
1052.2  6742
1052  6781.25
1051.8  6791.25
1051.6  6739.75
1051.4  6684
1051.2  6696.5
1051  6788
1050.8  6642.25
1050.6  6630.25
1050.4  6593.25
1050.2  6546.75
1050  6569.5
1049.8  6617
1049.6  6582.75
1049.4  6552.25
1049.2  6552.25
1049  6488
1048.8  6560
1048.6  6509.75
1048.4  6579
1048.2  6414.25
1048  6585
1047.8  6458.5
1047.6  6532
1047.4  6580.25
1047.2  6547
1047  6471.5
1046.8  6441.75
1046.6  6487.5
1046.4  6418
1046.2  6536.25
1046  6544.75
1045.8  6475.75
1045.6  6473.75
1045.4  6511.5
1045.2  6489.75
1045  6523.5
1044.8  6463.25
1044.6  6436.5
1044.4  6540.75
1044.2  6524.75
1044  6500
1043.8  6443.5
1043.6  6536.75
1043.4  6492.75
1043.2  6526
1043  6519.5
1042.8  6458.25
1042.6  6460.5
1042.4  6472.5
1042.2  6502.5
1042  6585.75
1041.8  6496.75
1041.6  6526.75
1041.4  6438.75
1041.2  6426.5
1041  6470.5
1040.8  6498.5
1040.6  6492
1040.4  6513.25
1040.2  6435
1040  6471.25
1039.8  6562.5
1039.6  6523.25
1039.4  6500.25
1039.2  6457.25
1039  6448.5
1038.8  6482.5
1038.6  6456
1038.4  6396.25
1038.2  6481.25
1038  6476.5
1037.8  6498.75
1037.6  6491.5
1037.4  6428
1037.2  6467.5
1037  6463
1036.8  6436.75
1036.6  6545.25
1036.4  6509.5
1036.2  6441
1036  6508
1035.8  6458.25
1035.6  6464.5
1035.4  6477.5
1035.2  6518.75
1035  6547.5
1034.8  6429.25
1034.6  6515.5
1034.4  6416.5
1034.2  6492.25
1034  6503.75
1033.8  6527.75
1033.6  6599.5
1033.4  6440
1033.2  6413.5
1033  6464.25
1032.8  6452.75
1032.6  6492
1032.4  6552.5
1032.2  6515.75
1032  6497.25
1031.8  6431.5
1031.6  6505.25
1031.4  6465.25
1031.2  6552
1031  6549.75
1030.8  6488.25
1030.6  6457.75
1030.4  6502
1030.2  6434.75
1030  6403
1029.8  6507.5
1029.6  6409.75
1029.4  6481
1029.2  6572.25
1029  6451.5
1028.8  6506.5
1028.6  6449.25
1028.4  6490.5
1028.2  6500.5
1028  6426.25
1027.8  6481.5
1027.6  6507.25
1027.4  6475.5
1027.2  6470.75
1027  6522
1026.8  6399.5
1026.6  6488.5
1026.4  6516
1026.2  6478
1026  6489.75
1025.8  6434.75
1025.6  6471.75
1025.4  6464
1025.2  6581.5
1025  6460.75
1024.8  6496.5
1024.6  6511.25
1024.4  6379.5
1024.2  6516.5
1024  6520.25
1023.8  6487.5
1023.6  6436
1023.4  6503
1023.2  6514.75
1023  6422.75
1022.8  6486.25
1022.6  6459.5
1022.4  6418
1022.2  6399.5
1022  6393.75
1021.8  6492.75
1021.6  6462
1021.4  6437.5
1021.2  6486.75
1021  6439
1020.8  6490.75
1020.6  6470.75
1020.4  6476
1020.2  6439.5
1020  6490
1019.8  6539.25
1019.6  6452.25
1019.4  6426.5
1019.2  6466.25
1019  6415.75
1018.8  6503.5
1018.6  6450.5
1018.4  6505.5
1018.2  6460.75
1018  6517
1017.8  6467.5
1017.6  6527.5
1017.4  6522.5
1017.2  6485
1017  6596.25
1016.8  6613
1016.6  6532
1016.4  6505
1016.2  6587.25
1016  6467
1015.8  6523.25
1015.6  6601.75
1015.4  6543.75
1015.2  6508.5
1015  6552.5
1014.8  6604
1014.6  6517.25
1014.4  6668.75
1014.2  6550
1014  6591.25
1013.8  6572.75
1013.6  6618.75
1013.4  6572.75
1013.2  6452
1013  6556.5
1012.8  6664.75
1012.6  6619.5
1012.4  6661.75
1012.2  6538.75
1012  6619
1011.8  6598
1011.6  6627
1011.4  6627.75
1011.2  6539.25
1011  6577
1010.8  6595
1010.6  6659.25
1010.4  6606.75
1010.2  6627
1010  6701.75
1009.8  6537.25
1009.6  6574.5
1009.4  6660.75
1009.2  6653.75
1009  6688
1008.8  6631.25
1008.6  6628
1008.4  6608.75
1008.2  6674.75
1008  6637
1007.8  6594
1007.6  6585.25
1007.4  6588.75
1007.2  6550.25
1007  6553.75
1006.8  6558.25
1006.6  6511
1006.4  6589.5
1006.2  6521
1006  6507
1005.8  6571.5
1005.6  6515.75
1005.4  6531.5
1005.2  6491.25
1005  6498.75
1004.8  6553
1004.6  6575.75
1004.4  6592.75
1004.2  6518
1004  6522
1003.8  6555.5
1003.6  6586.75
1003.4  6545.5
1003.2  6581.5
1003  6544.75
1002.8  6553.75
1002.6  6566
1002.4  6585.25
1002.2  6584
1002  6543.5
1001.8  6639
1001.6  6627.5
1001.4  6642.25
1001.2  6615.5
1001  6676.75
1000.8  6629.5
1000.6  6602.5
1000.4  6684.75
1000.2  6664.75
1000  6628
999.8  6713
999.6  6704
999.4  6651
999.2  6699.5
999  6705
998.8  6710
998.6  6804.5
998.4  6732
998.2  6749.75
998  6852.25
997.8  6749.5
997.6  6873.5
997.4  6884.5
997.2  6827.5
997  6851.5
996.8  6782.75
996.6  6898
996.4  6832.25
996.2  6854.25
996  6956.25
995.8  6943.75
995.6  6923.5
995.4  6952.75
995.2  6956.5
995  6970
994.8  7026.25
994.6  6942.75
994.4  6929.5
994.2  6853.5
994  6982
993.8  6942.25
993.6  6893.5
993.4  6836.75
993.2  6701
993  6754.75
992.8  6794.5
992.6  6808.25
992.4  6799.75
992.2  6744
992  6582
991.8  6608.25
991.6  6565.75
991.4  6617.25
991.2  6640.25
991  6682.75
990.8  6626
990.6  6642.75
990.4  6525.75
990.2  6520.75
990  6575
989.8  6633
989.6  6589.75
989.4  6569.5
989.2  6623
989  6590.25
988.8  6565
988.6  6508.75
988.4  6551.25
988.2  6595.25
988  6550
987.8  6608.75
987.6  6513.25
987.4  6491
987.2  6536.25
987  6523
986.8  6589.25
986.6  6531.25
986.4  6560.25
986.2  6488.25
986  6459.25
985.8  6563.25
985.6  6449.25
985.4  6514
985.2  6478.75
985  6497.75
984.8  6487
984.6  6516.75
984.4  6511.75
984.2  6497
984  6502.25
983.8  6472.75
983.6  6554.5
983.4  6428.5
983.2  6597.5
983  6434.25
982.8  6520.25
982.6  6402
982.4  6488.25
982.2  6482.75
982  6545.25
981.8  6472
981.6  6521
981.4  6514.25
981.2  6490.25
981  6527
980.8  6579
980.6  6496.5
980.4  6630.5
980.2  6616.5
980  6573.75
979.8  6620.75
979.6  6657.25
979.4  6664.5
979.2  6726.75
979  6755.5
978.8  6742.25
978.6  6788.25
978.4  6821.75
978.2  6960.5
978  6915.25
977.8  6970
977.6  7034
977.4  7053.75
977.2  7253.25
977  7414.75
976.8  7411.5
976.6  7569.25
976.4  7671.75
976.2  7870.5
976  7887.5
975.8  8050
975.6  8076.5
975.4  8198.75
975.2  8263.75
975  8280.75
974.8  8276.5
974.6  8319.5
974.4  8229
974.2  8252.25
974  8158.25
973.8  8022.25
973.6  7878
973.4  7769.25
973.2  7586.75
973  7444.25
972.8  7312
972.6  7198.5
972.4  7123.5
972.2  7029.75
972  7001.75
971.8  6897.75
971.6  6896.75
971.4  6795.25
971.2  6819.75
971  6749.75
970.8  6692.75
970.6  6619.5
970.4  6582
970.2  6628.25
970  6545.75
969.8  6511.5
969.6  6428.75
969.4  6445.5
969.2  6516.25
969  6454.25
968.8  6413
968.6  6370.75
968.4  6350.75
968.2  6371
968  6278
967.8  6277.75
967.6  6151
967.4  6172
967.2  6199.75
967  6176.5
966.8  6140.25
966.6  6087
966.4  6137.75
966.2  6091.25
966  6047.25
965.8  6015
965.6  5976.25
965.4  5938.5
965.2  5833.5
965  5981.25
964.8  5899.25
964.6  5873.5
964.4  5879.75
964.2  5832
964  5725.5
963.8  5822
963.6  5740.5
963.4  5813
963.2  5794.5
963  5792.75
962.8  5770
962.6  5709.75
962.4  5786.5
962.2  5673.25
962  5740.25
961.8  5724.5
961.6  5666.5
961.4  5690
961.2  5778
961  5674
960.8  5730.75
960.6  5720.5
960.4  5749.75
960.2  5716.75
960  5753.75
959.8  5755.5
959.6  5657.75
959.4  5709.25
959.2  5703.5
959  5702.5
958.8  5718.25
958.6  5731.5
958.4  5650.25
958.2  5703.75
958  5721.25
957.8  5666
957.6  5710.5
957.4  5676.75
957.2  5699.75
957  5681.75
956.8  5707.75
956.6  5750
956.4  5642.5
956.2  5719.75
956  5736.25
955.8  5700
955.6  5651.75
955.4  5684
955.2  5709.5
955  5721.25
954.8  5693.75
954.6  5665
954.4  5736.5
954.2  5714
954  5678
953.8  5763.25
953.6  5708.5
953.4  5719.25
953.2  5674
953  5669.5
952.8  5682.5
952.6  5693.75
952.4  5662.75
952.2  5717.5
952  5631.25
951.8  5726.25
951.6  5754
951.4  5665.25
951.2  5626
951  5666.25
950.8  5783
950.6  5620.5
950.4  5706.25
950.2  5679.5
950  5708
949.8  5688.5
949.6  5625.5
949.4  5674.5
949.2  5645
949  5648.75
948.8  5675.25
948.6  5683.5
948.4  5604.5
948.2  5650.5
948  5672.25
947.8  5698.25
947.6  5714.5
947.4  5712.75
947.2  5718
947  5623.5
946.8  5646.5
946.6  5718.25
946.4  5757.5
946.2  5692.5
946  5692
945.8  5691
945.6  5668.5
945.4  5759.5
945.2  5680.5
945  5678
944.8  5659.75
944.6  5709.75
944.4  5676.25
944.2  5677.75
944  5729.5
943.8  5682
943.6  5660.5
943.4  5624
943.2  5764.25
943  5679
942.8  5674.25
942.6  5699.75
942.4  5726.25
942.2  5677.5
942  5748.5
941.8  5760
941.6  5748
941.4  5671.25
941.2  5695.25
941  5662
940.8  5678.75
940.6  5780.25
940.4  5703.5
940.2  5671
940  5669.25
939.8  5718.5
939.6  5716.75
939.4  5697.5
939.2  5677.25
939  5661.75
938.8  5651
938.6  5664.75
938.4  5705
938.2  5751
938  5698
937.8  5693
937.6  5672.5
937.4  5792.75
937.2  5629
937  5707.25
936.8  5642
936.6  5685
936.4  5654
936.2  5677.25
936  5742.25
935.8  5682.75
935.6  5709.5
935.4  5737.75
935.2  5728.25
935  5723
934.8  5781.75
934.6  5711.25
934.4  5696.5
934.2  5747.5
934  5714.25
933.8  5718.25
933.6  5711.75
933.4  5768.5
933.2  5712.5
933  5684.5
932.8  5724.75
932.6  5786.25
932.4  5695.75
932.2  5704.25
932  5700
931.8  5721.25
931.6  5712.25
931.4  5747.5
931.2  5629.75
931  5658.25
930.8  5652.75
930.6  5705.25
930.4  5697.25
930.2  5719.5
930  5679.25
929.8  5741.5
929.6  5650
929.4  5708.75
929.2  5689.25
929  5622.5
928.8  5733.25
928.6  5705.25
928.4  5699.5
928.2  5723.5
928  5653
927.8  5633.5
927.6  5672.25
927.4  5707
927.2  5676.5
927  5680.75
926.8  5619.5
926.6  5687.5
926.4  5709
926.2  5703.75
926  5695.25
925.8  5703
925.6  5744
925.4  5694.5
925.2  5721.75
925  5675.75
924.8  5646
924.6  5710
924.4  5636.5
924.2  5653.25
924  5671
923.8  5663.75
923.6  5652
923.4  5674
923.2  5649
923  5726.5
922.8  5615.5
922.6  5671.25
922.4  5722.5
922.2  5672
922  5652.5
921.8  5706
921.6  5584.75
921.4  5598.75
921.2  5676.25
921  5582
920.8  5660.75
920.6  5669.25
920.4  5675
920.2  5635.75
920  5593.5
919.8  5628.75
919.6  5677.25
919.4  5666.75
919.2  5611.75
919  5690.75
918.8  5632
918.6  5676.75
918.4  5638.25
918.2  5667.75
918  5657.25
917.8  5704
917.6  5659.5
917.4  5661.25
917.2  5594.5
917  5642.5
916.8  5604.5
916.6  5650
916.4  5580.5
916.2  5642
916  5674.75
915.8  5635.5
915.6  5601.5
915.4  5603.25
915.2  5572
915  5668.25
914.8  5697.25
914.6  5618.25
914.4  5572.75
914.2  5654.75
914  5616
913.8  5640.75
913.6  5607.5
913.4  5669.25
913.2  5650
913  5609.25
912.8  5660.5
912.6  5615.5
912.4  5594
912.2  5587.5
912  5609.75
911.8  5595.5
911.6  5611
911.4  5592.25
911.2  5647.25
911  5638.75
910.8  5640
910.6  5627.75
910.4  5587.5
910.2  5654
910  5633.75
909.8  5596.75
909.6  5618.5
909.4  5667.25
909.2  5580.75
909  5558.75
908.8  5593.75
908.6  5666.5
908.4  5580
908.2  5550
908  5658
907.8  5604
907.6  5678.75
907.4  5622.25
907.2  5581
907  5649
906.8  5600.5
906.6  5655.25
906.4  5627.25
906.2  5598.75
906  5660
905.8  5601.5
905.6  5613
905.4  5585.75
905.2  5584.75
905  5677
904.8  5610
904.6  5673.5
904.4  5665
904.2  5678.5
904  5586.5
903.8  5643
903.6  5547
903.4  5578
903.2  5639
903  5624.5
902.8  5640.25
902.6  5641.5
902.4  5642.5
902.2  5675
902  5657.5
901.8  5589.75
901.6  5155.5
901.4  5522.25
901.2  5640.75
901  5689.75
900.8  5660
900.6  5627.25
900.4  5627.25
900.2  5655
900  5621.75
899.8  5582.75
899.6  5670.25
899.4  5565.75
899.2  5610.75
899  5687
898.8  5572.75
898.6  5636.75
898.4  5657
898.2  5628
898  5617.5
897.8  5589.75
897.6  5140.75
897.4  5559.5
897.2  5586.5
897  5630
896.8  5187.5
896.6  5351.5
896.4  5612
896.2  5659
896  5631.5
895.8  5627.75
895.6  5588.5
895.4  5575
895.2  5645.75
895  5514.75
894.8  5595.5
894.6  5695
894.4  5618.5
894.2  5636.25
894  5627
893.8  5589
893.6  5624.5
893.4  5205
893.2  5397.5
893  5641.5
892.8  5689.75
892.6  5558.25
892.4  5611.25
892.2  5575
892  5693.75
891.8  5590
891.6  5559.75
891.4  5616
891.2  5636.75
891  5544.75
890.8  5569.75
890.6  5551.25
890.4  5610.75
890.2  5563
890  5615.5
889.8  5594.75
889.6  5546.25
889.4  5622.25
889.2  5634.25
889  5675.75
888.8  5669.75
888.6  5609.75
888.4  5524
888.2  5639
888  5579.25
887.8  5659
887.6  5608.5
887.4  5591.75
887.2  5621.25
887  5598.75
886.8  5541.5
886.6  5572.5
886.4  5637.5
886.2  5600.25
886  5593.75
885.8  5647
885.6  5611
885.4  5620.5
885.2  5617.25
885  5556.75
884.8  5599.5
884.6  5663
884.4  5607.25
884.2  5602.25
884  5654
883.8  5564
883.6  5557.25
883.4  5630
883.2  5630
883  5594.75
882.8  5547.25
882.6  5592
882.4  5573.75
882.2  5553.5
882  5472.5
881.8  5530.5
881.6  5622.5
881.4  5539.5
881.2  5518.75
881  5563
880.8  5597.25
880.6  5610.5
880.4  5566.25
880.2  5576.25
880  5548.75
879.8  5507.5
879.6  5576.25
879.4  5578
879.2  5545.75
879  5570.75
878.8  5469.25
878.6  5503.25
878.4  5514.5
878.2  5534
878  5470
877.8  5544
877.6  5585.25
877.4  5483.25
877.2  5554.75
877  5589.25
876.8  5564.5
876.6  5509.75
876.4  5557.75
876.2  5571.5
876  5546
875.8  5514.25
875.6  5495.75
875.4  5577
875.2  5510.75
875  5553.25
874.8  5506
874.6  5520
874.4  5500.5
874.2  5496.75
874  5522.5
873.8  5484.75
873.6  5506
873.4  5546.75
873.2  5585.75
873  5503.75
872.8  5532.75
872.6  5555.25
872.4  5555.75
872.2  5567
872  5540.25
871.8  5567
871.6  5572.25
871.4  5494
871.2  5519.5
871  5541.75
870.8  5540
870.6  5550.5
870.4  5456
870.2  5512
870  5555.75
869.8  5464.75
869.6  5535.25
869.4  5546.5
869.2  5460.75
869  5515
868.8  5477.75
868.6  5559
868.4  5538.25
868.2  5525.75
868  5532.75
867.8  5536.25
867.6  5445.25
867.4  5547.75
867.2  5607.75
867  5467.5
866.8  5526
866.6  5525.5
866.4  5529.75
866.2  5523.5
866  5474.75
865.8  5537.25
865.6  5520.5
865.4  5535.5
865.2  5573.5
865  5521
864.8  5532.25
864.6  5547.75
864.4  5520.25
864.2  5537.75
864  5501.25
863.8  5442.75
863.6  5548.25
863.4  5542
863.2  5476.5
863  5493
862.8  5508.25
862.6  5569.5
862.4  5526
862.2  5502.5
862  5497
861.8  5490.25
861.6  5541.5
861.4  5500
861.2  5440
861  5596.5
860.8  5559.75
860.6  5538.75
860.4  5541.5
860.2  5551.25
860  5546.25
859.8  5462.25
859.6  5507
859.4  5577.75
859.2  5546.5
859  5492.25
858.8  5512
858.6  5443.5
858.4  5528.25
858.2  5496.5
858  5546.25
857.8  5516.75
857.6  5525
857.4  5502.25
857.2  5466.25
857  5542.5
856.8  5602
856.6  5516
856.4  5530.25
856.2  5479.25
856  5463.5
855.8  5557.25
855.6  5534.5
855.4  5518.25
855.2  5480.75
855  5553.25
854.8  5571.75
854.6  5590.75
854.4  5512.25
854.2  5529.25
854  5535.5
853.8  5474.75
853.6  5522.75
853.4  5569.5
853.2  5533.5
853  5499.5
852.8  5522
852.6  5528
852.4  5515.25
852.2  5535.5
852  5529.75
851.8  5523.25
851.6  5491.25
851.4  5531.25
851.2  5489
851  5523.5
850.8  5511.75
850.6  5528
850.4  5555
850.2  5479.75
850  5600.75
849.8  5542.25
849.6  5574
849.4  5580.5
849.2  5572.75
849  5576.25
848.8  5521.5
848.6  5494.25
848.4  5519.25
848.2  5453.75
848  5574
847.8  5528.25
847.6  5524
847.4  5654
847.2  5531.75
847  5551.5
846.8  5538.25
846.6  5537
846.4  5567.75
846.2  5572.75
846  5530.5
845.8  5497.5
845.6  5538.75
845.4  5534.5
845.2  5542.5
845  5596.5
844.8  5523.75
844.6  5509.75
844.4  5564.75
844.2  5550.25
844  5576.25
843.8  5520.25
843.6  5547.25
843.4  5594.5
843.2  5527.75
843  5519.75
842.8  5530
842.6  5524.5
842.4  5561
842.2  5524.75
842  5558.5
841.8  5483.75
841.6  5508
841.4  5533.75
841.2  5545.25
841  5514
840.8  5579.5
840.6  5562.25
840.4  5518
840.2  5531
840  5571.5
839.8  5566.5
839.6  5615.25
839.4  5538.75
839.2  5542.5
839  5536.25
838.8  5564.75
838.6  5592.75
838.4  5509
838.2  5561.25
838  5511
837.8  5572.5
837.6  5563.25
837.4  5586.25
837.2  5614.5
837  5570.5
836.8  5617.75
836.6  5565.75
836.4  5584
836.2  5602
836  5625
835.8  5615.25
835.6  5573.5
835.4  5608.75
835.2  5626.75
835  5621.5
834.8  5629.75
834.6  5699.5
834.4  5572.75
834.2  5693.5
834  5685.25
833.8  5677.25
833.6  5687
833.4  5697.75
833.2  5628.25
833  5718.25
832.8  5623.75
832.6  5734
832.4  5693.75
832.2  5665
832  5766.5
831.8  5820.75
831.6  5801.25
831.4  5837
831.2  5725
831  5824.25
830.8  5777.75
830.6  5837.5
830.4  5813
830.2  5769.5
830  5865
829.8  5828.75
829.6  5886.25
829.4  5948.75
829.2  5969.75
829  5987
828.8  5960
828.6  5949
828.4  5992.75
828.2  5974
828  6029.25
827.8  5955.25
827.6  5999
827.4  6014.5
827.2  6008.5
827  5997.5
826.8  5947.5
826.6  5973.75
826.4  5951.75
826.2  5932.25
826  5896.5
825.8  5875.25
825.6  5947
825.4  5892
825.2  5910.25
825  5846
824.8  5872.5
824.6  5857
824.4  5769.5
824.2  5811
824  5751
823.8  5788.75
823.6  5809
823.4  5817.25
823.2  5730.25
823  5783
822.8  5676.75
822.6  5721.25
822.4  5766.25
822.2  5701.25
822  5616.5
821.8  5677.75
821.6  5666.75
821.4  5624.5
821.2  5606.5
821  5610.5
820.8  5569.5
820.6  5587.5
820.4  5563
820.2  5567.5
820  5598.75
819.8  5531.75
819.6  5546.25
819.4  5587.5
819.2  5532
819  5487.25
818.8  5489.5
818.6  5498.5
818.4  5580.25
818.2  5520.75
818  5550
817.8  5430.5
817.6  5521.25
817.4  5445.75
817.2  5477
817  5495.5
816.8  5479.5
816.6  5468.75
816.4  5419
816.2  5420.75
816  5406
815.8  5437.75
815.6  5375.75
815.4  5410.25
815.2  5340.75
815  5389
814.8  5429.75
814.6  5459
814.4  5406.75
814.2  5440.25
814  5404.75
813.8  5347.5
813.6  5306
813.4  5436.75
813.2  5390
813  5394.5
812.8  5383.5
812.6  5339.25
812.4  5396.5
812.2  5411
812  5430.75
811.8  5324.25
811.6  5328
811.4  5326.5
811.2  5368
811  5356
810.8  5341
810.6  5278
810.4  5301.75
810.2  5322.75
810  5334.5
809.8  5365.5
809.6  5368.25
809.4  5362.75
809.2  5351
809  5385.75
808.8  5306
808.6  5362.75
808.4  5295
808.2  5314.5
808  5343.5
807.8  5367.25
807.6  5353.75
807.4  5294.75
807.2  5340.5
807  5343.75
806.8  5293.25
806.6  5202
806.4  5245.25
806.2  5244.75
806  5285.5
805.8  5205.75
805.6  5305.5
805.4  5290.5
805.2  5260.5
805  5295
804.8  5242.75
804.6  5242
804.4  5300.5
804.2  5216.25
804  5242.75
803.8  5233.25
803.6  5279
803.4  5254
803.2  5322.5
803  5277
802.8  5263.5
802.6  5293.75
802.4  5280.75
802.2  5278.25
802  5250.75
801.8  5212.25
801.6  5191
801.4  5287.25
801.2  5226.25
801  5220.25
800.8  5268
800.6  5230.5
800.4  5311.5
800.2  5249.75
800  5300.5
799.8  5263
799.6  5307.75
799.4  5213
799.2  5329.75
799  5215.5
798.8  5303.5
798.6  5210.75
798.4  5166.75
798.2  5211.75
798  5292.5
797.8  5286.25
797.6  5222.75
797.4  5303
797.2  5231.25
797  5262.75
796.8  5264.25
796.6  5240.75
796.4  5191.25
796.2  5224
796  5262.5
795.8  5221.5
795.6  5301
795.4  5230.25
795.2  5206.75
795  5346.25
794.8  5275.75
794.6  5271.75
794.4  5242.5
794.2  5184.5
794  5180.75
793.8  5219.75
793.6  5222.75
793.4  5258
793.2  5243.25
793  5193.5
792.8  5259
792.6  5219.75
792.4  5259.25
792.2  5217
792  5253.25
791.8  5183.5
791.6  5155.75
791.4  5207.75
791.2  5241
791  5261.5
790.8  5201.25
790.6  5239.25
790.4  5269.25
790.2  5241
790  5249.5
789.8  5222.25
789.6  5223
789.4  5236.25
789.2  5246
789  5247.25
788.8  5338.5
788.6  5220.25
788.4  5268.5
788.2  5228
788  5318.5
787.8  5245.5
787.6  5202
787.4  5210
787.2  5253.25
787  5247
786.8  5207.5
786.6  5279.5
786.4  5228
786.2  5225.25
786  5212
785.8  5176.25
785.6  5276
785.4  5241.5
785.2  5188
785  5242.25
784.8  5197.5
784.6  5232.25
784.4  5237
784.2  5199.75
784  5209
783.8  5223.25
783.6  5262.25
783.4  5214.25
783.2  5225.25
783  5256.5
782.8  5224.75
782.6  5250
782.4  5334.75
782.2  5207.5
782  5207.5
781.8  5295.25
781.6  5247
781.4  5193.5
781.2  5203.5
781  5225.25
780.8  5232.75
780.6  5235
780.4  5204.75
780.2  5254.25
780  5196.75
779.8  5221.75
779.6  5259.5
779.4  5261.5
779.2  5265.5
779  5197.75
778.8  5139.5
778.6  5204.5
778.4  5233
778.2  5211.75
778  5159.75
777.8  5219
777.6  5181.5
777.4  5201.5
777.2  5216.5
777  5254.5
776.8  5199.75
776.6  5247.75
776.4  5232.75
776.2  5303
776  5221.25
775.8  5172.5
775.6  5239
775.4  5217.25
775.2  5272
775  5223.25
774.8  5276
774.6  5267.25
774.4  5170
774.2  5279.5
774  5193.5
773.8  5169
773.6  5189.75
773.4  5201.5
773.2  5200.25
773  5222.25
772.8  5183
772.6  5205.5
772.4  5200
772.2  5324.75
772  5202
771.8  5240.25
771.6  5263.25
771.4  5205.25
771.2  5257.5
771  5162.25
770.8  5220.25
770.6  5247.5
770.4  5149
770.2  5252.25
770  5225.25
769.8  5189.5
769.6  5162.25
769.4  5212.25
769.2  5228
769  5182.25
768.8  5193
768.6  5172.5
768.4  5120
768.2  5207.25
768  5182.75
767.8  5188.75
767.6  5236.75
767.4  5217.25
767.2  5265.75
767  5254.25
766.8  5237.5
766.6  5160.5
766.4  5237
766.2  5220
766  5225.75
765.8  5217.5
765.6  5234.5
765.4  5211.5
765.2  5213.75
765  5293.25
764.8  5241.75
764.6  5215.75
764.4  5284.25
764.2  5295
764  5263.5
763.8  5208
763.6  5274
763.4  5273.75
763.2  5263
763  5299.75
762.8  5266.25
762.6  5328
762.4  5320
762.2  5211
762  5315.5
761.8  5208
761.6  5288.5
761.4  5229.75
761.2  5231.75
761  5249.75
760.8  5356.75
760.6  5284
760.4  5331.75
760.2  5303
760  5311.75
759.8  5300.75
759.6  5330.25
759.4  5368.25
759.2  5441.75
759  5344.25
758.8  5344.75
758.6  5340.5
758.4  5412
758.2  5447.5
758  5386
757.8  5455.5
757.6  5375.75
757.4  5343.25
757.2  5280.75
757  5304.5
756.8  5338
756.6  5289.75
756.4  5310
756.2  5243.25
756  5363.5
755.8  5313
755.6  5245
755.4  5309.25
755.2  5184
755  5276.25
754.8  5272.75
754.6  5233.5
754.4  5229
754.2  5179
754  5218.75
753.8  5188.75
753.6  5280.25
753.4  5240.75
753.2  5244.25
753  5203.5
752.8  5295.75
752.6  5280.25
752.4  5283.5
752.2  5200
752  5190.75
751.8  5207.75
751.6  5215.5
751.4  5218.5
751.2  5133.5
751  5143.25
750.8  5135.75
750.6  5208.5
750.4  5235.75
750.2  5199.25
750  5233.5
749.8  5265.25
749.6  5233.5
749.4  5147.25
749.2  5173.25
749  5108.25
748.8  5191
748.6  5180.25
748.4  5230.75
748.2  5256.25
748  5212.25
747.8  5196.25
747.6  5240.75
747.4  5168.75
747.2  5146.25
747  5220.25
746.8  5162.5
746.6  5201.75
746.4  5145.5
746.2  5188.25
746  5158
745.8  5238.75
745.6  5206
745.4  5200.5
745.2  5148.75
745  5184.25
744.8  5240.5
744.6  5198.5
744.4  5184.75
744.2  5180.25
744  5128.5
743.8  5160
743.6  5254.75
743.4  5152.75
743.2  5175.5
743  5188.25
742.8  5177.5
742.6  5191.25
742.4  5234.75
742.2  5236.75
742  5152.5
741.8  5205.5
741.6  5152.25
741.4  5220.75
741.2  5158
741  5212.75
740.8  5221.75
740.6  5158.5
740.4  5166.5
740.2  5151.75
740  5237.5
739.8  5188.25
739.6  5212.5
739.4  5276
739.2  5268.75
739  5153.25
738.8  5203.75
738.6  5192.25
738.4  5147.25
738.2  5177.75
738  5110
737.8  5222.75
737.6  5191.5
737.4  5209.75
737.2  5172.5
737  5194.25
736.8  5227.5
736.6  5178.25
736.4  5229
736.2  5189.25
736  5193.75
735.8  5209.5
735.6  5219.5
735.4  5171.25
735.2  5200
735  5201.75
734.8  5214.5
734.6  5218.5
734.4  5191.75
734.2  5191.5
734  5220
733.8  5192.5
733.6  5216.25
733.4  5209
733.2  5247.5
733  5135.25
732.8  5192.75
732.6  5211
732.4  5237.5
732.2  5257.5
732  5273
731.8  5224.5
731.6  5183.25
731.4  5225.75
731.2  5223.25
731  5212
730.8  5258.25
730.6  5232
730.4  5230
730.2  5193.5
730  5206.25
729.8  5243.5
729.6  5196
729.4  5216
729.2  5194.75
729  5216.25
728.8  5228
728.6  5219.25
728.4  5269.25
728.2  5196.75
728  5227.5
727.8  5209.25
727.6  5187
727.4  5257.25
727.2  5196.75
727  5210.75
726.8  5245.5
726.6  5226.75
726.4  5190.25
726.2  5224.5
726  5277.5
725.8  5209.5
725.6  5217.5
725.4  5251.5
725.2  5215.75
725  5265.25
724.8  5169.75
724.6  5220.25
724.4  5221.25
724.2  5231.5
724  5282.5
723.8  5215.25
723.6  5290
723.4  5259
723.2  5259.5
723  5236
722.8  5323.25
722.6  5280
722.4  5320.25
722.2  5230.5
722  5267.25
721.8  5291.25
721.6  5292.5
721.4  5314
721.2  5346.75
721  5371.5
720.8  5328.25
720.6  5339.5
720.4  5351.25
720.2  5364.25
720  5298.25
719.8  5357
719.6  5335.75
719.4  5363.5
719.2  5358
719  5400.5
718.8  5450
718.6  5462.25
718.4  5504.5
718.2  5538.75
718  5486.25
717.8  5448
717.6  5516.5
717.4  5548.25
717.2  5497.75
717  5589.75
716.8  5610.5
716.6  5527.5
716.4  5591.5
716.2  5598.5
716  5505.5
715.8  5583.5
715.6  5563.25
715.4  5514.5
715.2  5481.25
715  5406
714.8  5455
714.6  5416.75
714.4  5398
714.2  5379
714  5346.5
713.8  5299.5
713.6  5339
713.4  5292.5
713.2  5314
713  5242.5
712.8  5260.5
712.6  5222.75
712.4  5173.25
712.2  5196.25
712  5240.25
711.8  5181
711.6  5172.5
711.4  5182.25
711.2  5239
711  5175.5
710.8  5193.5
710.6  5165
710.4  5185.75
710.2  5241.25
710  5250.5
709.8  5232.5
709.6  5272.75
709.4  5300.25
709.2  5244.5
709  5303.5
708.8  5208
708.6  5359.75
708.4  5310.25
708.2  5387.75
708  5362
707.8  5414
707.6  5532
707.4  5561
707.2  5595.5
707  5690.25
706.8  5778
706.6  5895.75
706.4  6002
706.2  6091.75
706  6242
705.8  6367.75
705.6  6499.5
705.4  6663.75
705.2  6755.75
705  6947
704.8  7068
704.6  7195.25
704.4  7310.5
704.2  7296
704  7400.25
703.8  7333.5
703.6  7305.5
703.4  7203.75
703.2  7157.75
703  6987.5
702.8  6870.5
702.6  6616.25
702.4  6561
702.2  6321.5
702  6178
701.8  6041.75
701.6  5951.5
701.4  5812.5
701.2  5694.25
701  5534.75
700.8  5533.25
700.6  5480.5
700.4  5362.75
700.2  5307.5
700  5300.25
699.8  5228.25
699.6  5198
699.4  5110.25
699.2  5166.25
699  5053.25
698.8  5112
698.6  5047.5
698.4  5068
698.2  5022.5
698  5000
697.8  5024.5
697.6  5029
697.4  4953.75
697.2  4997.75
697  4970
696.8  4996
696.6  5024.5
696.4  5013.75
696.2  4947.75
696  5023.5
695.8  4996.5
695.6  5002
695.4  5001.25
695.2  4986.75
695  5106
694.8  5062
694.6  5044.75
694.4  5027.5
694.2  5079.75
694  5064.25
693.8  5008
693.6  5101
693.4  5114.75
693.2  5091.25
693  5019.25
692.8  4998.25
692.6  5013.75
692.4  5090.5
692.2  4965.75
692  4980.25
691.8  4950.75
691.6  4972.5
691.4  4993.25
691.2  4965.25
691  4928.25
690.8  4862.5
690.6  4887
690.4  4922.75
690.2  4836.25
690  4916.75
689.8  4897.5
689.6  4877.5
689.4  4776.75
689.2  4811.75
689  4862
688.8  4850.75
688.6  4837.25
688.4  4904
688.2  4882.25
688  4865
687.8  4861
687.6  4903.5
687.4  4782.5
687.2  4883.25
687  4864.5
686.8  4950.75
686.6  4917
686.4  4881.25
686.2  4942
686  4870
685.8  4934
685.6  4948.75
685.4  4916.25
685.2  4931.25
685  4986.5
684.8  4897
684.6  4940.75
684.4  4944.5
684.2  4906.75
684  4961.5
683.8  4941
683.6  4950.5
683.4  4949.75
683.2  4907
683  4903
682.8  4921
682.6  4842.5
682.4  4903.25
682.2  4865
682  4909.75
681.8  4905.75
681.6  4829.75
681.4  4830.5
681.2  4799.5
681  4800
680.8  4809.75
680.6  4864.5
680.4  4888.75
680.2  4837.5
680  4853.75
679.8  4814.75
679.6  4870
679.4  4854.75
679.2  4842.5
679  4831.75
678.8  4842
678.6  4908.5
678.4  4911.25
678.2  4914.75
678  4907.75
677.8  4913
677.6  4908.5
677.4  4869.5
677.2  4852.25
677  4875.5
676.8  4922.75
676.6  4837.25
676.4  4797.25
676.2  4770.75
676  4741.25
675.8  4741.75
675.6  4721.25
675.4  4680
675.2  4732
675  4715.5
674.8  4721
674.6  4706.25
674.4  4740
674.2  4668.5
674  4715.25
673.8  4733
673.6  4743.25
673.4  4689.75
673.2  4780.5
673  4765.75
672.8  4740
672.6  4787.5
672.4  4757.75
672.2  4831.5
672  4762
671.8  4802.25
671.6  4879.75
671.4  4905
671.2  4899.5
671  4961.25
670.8  4986.25
670.6  5105
670.4  5182.5
670.2  5230.75
670  5388.75
669.8  5399
669.6  5521.75
669.4  5572.25
669.2  5715.5
669  5873.75
668.8  6104
668.6  6219.25
668.4  6419.25
668.2  6684
668  6919.5
667.8  7156.5
667.6  7463.5
667.4  7717.5
667.2  8048.25
667  8145
666.8  8519
666.6  8643.5
666.4  8830
666.2  8884
666  8963.25
665.8  8900.5
665.6  8820.5
665.4  8666.75
665.2  8439
665  8125.5
664.8  7837.75
664.6  7560.75
664.4  7351.5
664.2  6889.5
664  6661.5
663.8  6423.5
663.6  6100.25
663.4  5928.5
663.2  5791
663  5611.5
662.8  5408
662.6  5356.25
662.4  5268.25
662.2  5128
662  5028.5
661.8  4888.75
661.6  4828.5
661.4  4754.25
661.2  4715
661  4748.25
660.8  4665.75
660.6  4668.25
660.4  4666.25
660.2  4509.75
660  4511.5
659.8  4542.5
659.6  4492.5
659.4  4445
659.2  4455
659  4399.25
658.8  4449.5
658.6  4467.5
658.4  4513.75
658.2  4395.5
658  4480.5
657.8  4415
657.6  4452
657.4  4474.5
657.2  4487.25
657  4492.5
656.8  4486
656.6  4529.5
656.4  4547.25
656.2  4521.5
656  4522.75
655.8  4466.75
655.6  4512
655.4  4493.5
655.2  4464.75
655  4438.25
654.8  4437
654.6  4368
654.4  4387.75
654.2  4371.5
654  4400
653.8  4308
653.6  4277.5
653.4  4201.75
653.2  4227.5
653  4162.5
652.8  4146
652.6  4081.5
652.4  4151.5
652.2  4134.5
652  4109
651.8  4089.5
651.6  4074.5
651.4  4102
651.2  4042.25
651  4040.75
650.8  4045
650.6  4007.25
650.4  4058.75
650.2  3992.75
650  3946.75
649.8  3994.25
649.6  3958.25
649.4  4011.5
649.2  3975.5
649  3909
648.8  3978.5
648.6  3958.75
648.4  3938.25
648.2  3962.5
648  3985.5
647.8  3977.75
647.6  3941.5
647.4  3967
647.2  3891.5
647  3873.75
646.8  3937
646.6  3945.25
646.4  3953.5
646.2  3957.25
646  3935.75
645.8  3903.75
645.6  3897.25
645.4  3959.25
645.2  3919.75
645  3943.5
644.8  3929
644.6  3936.5
644.4  3920.75
644.2  3950.25
644  3929
643.8  3943.75
643.6  3924.75
643.4  3928.5
643.2  3943.75
643  3921.75
642.8  3870
642.6  3956.25
642.4  3923.5
642.2  3989
642  3865.25
641.8  3910.75
641.6  3894.75
641.4  3908
641.2  3869
641  3904.25
640.8  3900.5
640.6  3842.5
640.4  3867.75
640.2  3953.25
640  3905
639.8  3901
639.6  3895
639.4  3897.75
639.2  3909
639  3907.75
638.8  3856.75
638.6  3848.75
638.4  3803
638.2  3858.75
638  3880.75
637.8  3803
637.6  3868.75
637.4  3917
637.2  3913.5
637  3857.25
636.8  3815.75
636.6  3835.75
636.4  3833.75
636.2  3926.5
636  3868.5
635.8  3903.25
635.6  3856.75
635.4  3882.25
635.2  3887
635  3872.75
634.8  3885.75
634.6  3888.5
634.4  3863.5
634.2  3894.5
634  3900.25
633.8  3894.75
633.6  3867.5
633.4  3882.5
633.2  3852.25
633  3934.25
632.8  3952.5
632.6  3886.5
632.4  3900
632.2  3888
632  3885.5
631.8  3901.75
631.6  3871.5
631.4  3911.75
631.2  3843.25
631  3897.25
630.8  3823.75
630.6  3868.25
630.4  3870
630.2  3860.5
630  3873.5
629.8  3809.25
629.6  3841.5
629.4  3810.5
629.2  3826.25
629  3875.75
628.8  3871.5
628.6  3821.75
628.4  3858.75
628.2  3827
628  3856.25
627.8  3838.5
627.6  3870.5
627.4  3798
627.2  3830
627  3829
626.8  3845.75
626.6  3870.25
626.4  3791
626.2  3759.75
626  3833
625.8  3816
625.6  3876.75
625.4  3848.75
625.2  3784.75
625  3861
624.8  3843.5
624.6  3815.25
624.4  3850.25
624.2  3833
624  3825.75
623.8  3831.25
623.6  3845.75
623.4  3874.75
623.2  3849.75
623  3826
622.8  3806
622.6  3858
622.4  3817.25
622.2  3786.75
622  3836.25
621.8  3880.5
621.6  3855
621.4  3872
621.2  3893.25
621  3850.75
620.8  3832.75
620.6  3865.75
620.4  3835.75
620.2  3790.75
620  3847.75
619.8  3903
619.6  3841.25
619.4  3860.5
619.2  3837.25
619  3842.5
618.8  3821.5
618.6  3822.5
618.4  3848.75
618.2  3785.5
618  3780.75
617.8  3859
617.6  3822.25
617.4  3852.75
617.2  3796.75
617  3843.5
616.8  3857
616.6  3868.75
616.4  3834.75
616.2  3908
616  3865.25
615.8  3834.25
615.6  3837
615.4  3754.5
615.2  3866
615  3830.25
614.8  3766.5
614.6  3847.25
614.4  3830
614.2  3869.75
614  3854
613.8  3850
613.6  3828
613.4  3854.5
613.2  3849.25
613  3839.75
612.8  3811.5
612.6  3884.75
612.4  3847.75
612.2  3893.5
612  3842.5
611.8  3897
611.6  3864.75
611.4  3812.25
611.2  3846.25
611  3819.75
610.8  3855
610.6  3897.75
610.4  3914.5
610.2  3837.75
610  3886.25
609.8  3879
609.6  3885.25
609.4  3853.5
609.2  3869.25
609  3872
608.8  3858.25
608.6  3834
608.4  3848.75
608.2  3855.25
608  3818.5
607.8  3864
607.6  3841.75
607.4  3916.25
607.2  3888
607  3875.5
606.8  3878.25
606.6  3849.75
606.4  3912.75
606.2  3857.5
606  3828.75
605.8  3853.75
605.6  3889.5
605.4  3898.75
605.2  3845.5
605  3921.25
604.8  3885.5
604.6  3852
604.4  3897.25
604.2  3883
604  3844.75
603.8  3874.75
603.6  3832
603.4  3863.75
603.2  3855.25
603  3870
602.8  3863
602.6  3857.75
602.4  3854.75
602.2  3826.75
602  3876.5
601.8  3879.75
601.6  3862.75
601.4  3922
601.2  3919
601  3907.25
600.8  3889
600.6  3903
600.4  3845.75
600.2  3861.25
600  3903.75
599.8  3894.25
599.6  3877
599.4  3922.75
599.2  3944.25
599  3891.5
598.8  3853.75
598.6  3949.25
598.4  3890.75
598.2  3947.5
598  3907
597.8  3894.25
597.6  3877.25
597.4  3923.5
597.2  3934.75
597  3952.5
596.8  3901.5
596.6  3882.5
596.4  3970
596.2  3913.25
596  3912
595.8  3870.5
595.6  3888
595.4  3903
595.2  3973.5
595  3968.5
594.8  3877.75
594.6  3902.5
594.4  3873.75
594.2  3875.5
594  3870.75
593.8  3886.25
593.6  3877.75
593.4  3883.25
593.2  3842.5
593  3974
592.8  3883.75
592.6  3833.25
592.4  3896.75
592.2  3828.25
592  3869
591.8  3856
591.6  3873.5
591.4  3877.25
591.2  3812.5
591  3780.5
590.8  3755.25
590.6  3903.75
590.4  3883.5
590.2  3805.5
590  3863.25
589.8  3855.75
589.6  3840
589.4  3869.5
589.2  3857
589  3823.25
588.8  3880.75
588.6  3864.25
588.4  3837
588.2  3845
588  3838.25
587.8  3861.5
587.6  3782.5
587.4  3859
587.2  3824.5
587  3834.75
586.8  3860.75
586.6  3836
586.4  3834.75
586.2  3871.25
586  3826.5
585.8  3852.25
585.6  3835
585.4  3836.5
585.2  3822.5
585  3913.25
584.8  3792.25
584.6  3839.25
584.4  3890.75
584.2  3850
584  3823.5
583.8  3879
583.6  3834.25
583.4  3898
583.2  3839
583  3818.5
582.8  3866.25
582.6  3867.5
582.4  3879
582.2  3899
582  3865
581.8  3808.75
581.6  3883
581.4  3861.25
581.2  3910
581  3830
580.8  3813
580.6  3889.5
580.4  3867.75
580.2  3853.75
580  3828.25
579.8  3850.75
579.6  3833
579.4  3815.75
579.2  3832
579  3856.5
578.8  3905.25
578.6  3941.5
578.4  3845
578.2  3879
578  3835.75
577.8  3848
577.6  3884
577.4  3884.75
577.2  3837.25
577  3898.75
576.8  3837.75
576.6  3880.75
576.4  3855
576.2  3862.25
576  3894.5
575.8  3867.75
575.6  3869
575.4  3871.5
575.2  3890.25
575  3886.25
574.8  3812.25
574.6  3832.25
574.4  3847
574.2  3809.5
574  3823
573.8  3860.25
573.6  3867.5
573.4  3866.25
573.2  3878.75
573  3875
572.8  3841
572.6  3883.25
572.4  3826.75
572.2  3910
572  3843.75
571.8  3821.25
571.6  3863
571.4  3866.5
571.2  3905
571  3885
570.8  3896.75
570.6  3923
570.4  3952.75
570.2  3935.5
570  3872
569.8  3924.5
569.6  3895.5
569.4  3821.5
569.2  3938.75
569  3930.25
568.8  3903.75
568.6  3886.5
568.4  3878.5
568.2  3905.5
568  3908.75
567.8  3943.75
567.6  3871.5
567.4  3945.25
567.2  3910.75
567  3897
566.8  3927.75
566.6  3905.5
566.4  3941.25
566.2  3901
566  3904.5
565.8  3891
565.6  3900.25
565.4  3885.75
565.2  3953.5
565  3937.75
564.8  3879
564.6  3822.75
564.4  3839
564.2  3948.5
564  3908.5
563.8  3818.5
563.6  3855.75
563.4  3872.5
563.2  3876.25
563  3927.25
562.8  3902.75
562.6  3927.25
562.4  3806
562.2  3904
562  3884.25
561.8  3833.75
561.6  3897.5
561.4  3904
561.2  3861.75
561  3856.5
560.8  3950.75
560.6  3888.5
560.4  3869.25
560.2  3902.5
560  3927
559.8  3863.75
559.6  3857
559.4  3947
559.2  3918.5
559  3890
558.8  3859.25
558.6  3905.75
558.4  3940.5
558.2  3905.75
558  3872
557.8  3827.25
557.6  3922.75
557.4  3890.25
557.2  3923
557  3944
556.8  3893.5
556.6  3915.5
556.4  3962
556.2  3893.75
556  3896
555.8  3926.75
555.6  3939.25
555.4  3932.75
555.2  4004.25
555  3938.25
554.8  3995
554.6  4007.5
554.4  3966
554.2  3909
554  3950.25
553.8  4002.75
553.6  3992.25
553.4  3981.5
553.2  3961.5
553  3976.75
552.8  3953.25
552.6  3956.75
552.4  4022.25
552.2  3988.25
552  4035.25
551.8  3960.5
551.6  3971.5
551.4  3970
551.2  3970.5
551  3990.5
550.8  3969.75
550.6  4054.75
550.4  4025.5
550.2  4044.25
550  3974
549.8  4029.5
549.6  4028.25
549.4  4022.75
549.2  4095
549  4057.5
548.8  4031
548.6  4054.25
548.4  4063.25
548.2  4067.75
548  4094.25
547.8  4110.5
547.6  4083.25
547.4  4127.5
547.2  4095.5
547  4076
546.8  4088.75
546.6  4091
546.4  3987.25
546.2  4041
546  3981.75
545.8  4034.25
545.6  3951.5
545.4  3956.5
545.2  3910.75
545  3949.5
544.8  3916.5
544.6  3897.75
544.4  3898.5
544.2  3888.5
544  3920.75
543.8  3873.75
543.6  3812
543.4  3800.25
543.2  3841
543  3824.5
542.8  3854.75
542.6  3854.5
542.4  3845.75
542.2  3796.5
542  3808.25
541.8  3825.25
541.6  3766.25
541.4  3830.75
541.2  3755.25
541  3762.75
540.8  3754.25
540.6  3805
540.4  3736.75
540.2  3751.25
540  3774
539.8  3760.75
539.6  3776
539.4  3844.75
539.2  3759.25
539  3730.25
538.8  3765
538.6  3702.5
538.4  3686.25
538.2  3763.75
538  3725
537.8  3701.5
537.6  3719.25
537.4  3672.25
537.2  3724.25
537  3748.25
536.8  3706
536.6  3688.25
536.4  3741.5
536.2  3739.25
536  3670.75
535.8  3668
535.6  3707.5
535.4  3678.75
535.2  3704.5
535  3708.5
534.8  3779.5
534.6  3742.75
534.4  3764.75
534.2  3847
534  3862
533.8  3944
533.6  3978.5
533.4  4022.5
533.2  4152.75
533  4206.5
532.8  4367
532.6  4536.5
532.4  4701
532.2  4952.75
532  5261.5
531.8  5535.75
531.6  5958.75
531.4  6332
531.2  6740
531  7058
530.8  7386.75
530.6  7681
530.4  7745.75
530.2  7729.75
530  7449
529.8  7069.25
529.6  6553.75
529.4  6030
529.2  5495.75
529  5072.75
528.8  4645
528.6  4351.75
528.4  4108.25
528.2  3906.25
528  3818.25
527.8  3754.75
527.6  3612.75
527.4  3631
527.2  3610.5
527  3607.75
526.8  3599.5
526.6  3569
526.4  3570.5
526.2  3492.75
526  3514.75
525.8  3516.5
525.6  3537.25
525.4  3500.75
525.2  3601.25
525  3492.25
524.8  3566.5
524.6  3561.25
524.4  3437
524.2  3500.5
524  3578.25
523.8  3535.5
523.6  3527.25
523.4  3624.5
523.2  3545.5
523  3534
522.8  3532.5
522.6  3523
522.4  3577.75
522.2  3593
522  3621
521.8  3683.25
521.6  3706.75
521.4  3746.75
521.2  3736.5
521  3828
520.8  3770.5
520.6  3860.25
520.4  3737.25
520.2  3792
520  3796.75
519.8  3706.5
519.6  3770
519.4  3684.5
519.2  3668.75
519  3693.75
518.8  3644
518.6  3656.25
518.4  3619.75
518.2  3654.75
518  3656.75
517.8  3529.75
517.6  3569.5
517.4  3558
517.2  3563.5
517  3498.5
516.8  3557
516.6  3512.25
516.4  3405.75
516.2  3455.75
516  3486.75
515.8  3478.5
515.6  3475.25
515.4  3466.5
515.2  3507
515  3498
514.8  3448.75
514.6  3459.5
514.4  3522.5
514.2  3463.75
514  3469.5
513.8  3457
513.6  3423.25
513.4  3495.75
513.2  3476.75
513  3450.5
512.8  3436.25
512.6  3488.5
512.4  3466.5
512.2  3529.75
512  3487
511.8  3472.25
511.6  3524
511.4  3525.5
511.2  3524.5
511  3495.5
510.8  3512
510.6  3499.75
510.4  3510.25
510.2  3511.25
510  3442
509.8  3556.5
509.6  3488
509.4  3460.25
509.2  3488.5
509  3486.75
508.8  3582
508.6  3545.25
508.4  3477.75
508.2  3538.75
508  3513
507.8  3481.5
507.6  3484.75
507.4  3524
507.2  3500.5
507  3458.75
506.8  3528.5
506.6  3538.75
506.4  3563
506.2  3514.5
506  3477
505.8  3560.75
505.6  3465.75
505.4  3500.75
505.2  3445.75
505  3482
504.8  3478
504.6  3530.5
504.4  3502.75
504.2  3533.25
504  3566.5
503.8  3482.5
503.6  3451.5
503.4  3461.75
503.2  3482.25
503  3481.25
502.8  3533.25
502.6  3484.75
502.4  3454.75
502.2  3508.25
502  3526.5
501.8  3494.5
501.6  3476.5
501.4  3485
501.2  3461.5
501  3473
500.8  3485.75
500.6  3444.25
500.4  3480.5
500.2  3442
500  3502.25
499.8  3444.25
499.6  3480.25
499.4  3465.5
499.2  3470
499  3428.75
498.8  3509.25
498.6  3469
498.4  3559.25
498.2  3473
498  3601
497.8  3601.75
497.6  3579
497.4  3661.25
497.2  3653.75
497  3754.5
496.8  3749.75
496.6  3846.75
496.4  3962
496.2  4053
496  4187
495.8  4314.75
495.6  4317.25
495.4  4356.75
495.2  4376.25
495  4360.75
494.8  4246
494.6  4142.5
494.4  3985.75
494.2  3896.25
494  3757
493.8  3588
493.6  3528
493.4  3482.5
493.2  3450
493  3481
492.8  3453
492.6  3402.25
492.4  3342
492.2  3400
492  3392
491.8  3430.75
491.6  3387.5
491.4  3399.5
491.2  3370.25
491  3432.25
490.8  3378.75
490.6  3392.75
490.4  3354
490.2  3373.75
490  3414.25
489.8  3494.75
489.6  3478.25
489.4  3513
489.2  3535.5
489  3631.75
488.8  3678.25
488.6  3744.75
488.4  3780.25
488.2  3977
488  4079
487.8  4233
487.6  4383.25
487.4  4530.5
487.2  4602
487  4652.25
486.8  4703.5
486.6  4677.5
486.4  4591.5
486.2  4447.75
486  4230
485.8  4008.5
485.6  3932.25
485.4  3766.5
485.2  3634
485  3590
484.8  3483.75
484.6  3481.25
484.4  3426
484.2  3392
484  3429
483.8  3413.5
483.6  3355.5
483.4  3339
483.2  3453
483  3421
482.8  3360.5
482.6  3413.25
482.4  3401.25
482.2  3332.25
482  3355
481.8  3335.25
481.6  3321.75
481.4  3309
481.2  3334.75
481  3374
480.8  3393.75
480.6  3296.5
480.4  3389.25
480.2  3360.25
480  3323.5
479.8  3390.5
479.6  3387
479.4  3396.5
479.2  3370.5
479  3355.5
478.8  3345
478.6  3400.5
478.4  3338.5
478.2  3377.75
478  3344.75
477.8  3433.75
477.6  3420.5
477.4  3402.75
477.2  3424.75
477  3390.5
476.8  3374.75
476.6  3436.25
476.4  3412
476.2  3391
476  3415.5
475.8  3397.25
475.6  3323.75
475.4  3358
475.2  3406.25
475  3490.5
474.8  3362.5
474.6  3399
474.4  3394.75
474.2  3447.25
474  3419.5
473.8  3430.25
473.6  3484.25
473.4  3508.5
473.2  3426.25
473  3482
472.8  3439.5
472.6  3481.25
472.4  3550.75
472.2  3523.25
472  3448.25
471.8  3502.75
471.6  3555.25
471.4  3504.5
471.2  3502.25
471  3430.75
470.8  3516.25
470.6  3576.25
470.4  3540.75
470.2  3556.25
470  3514.75
469.8  3479.25
469.6  3568.25
469.4  3482
469.2  3449.5
469  3474.75
468.8  3474.75
468.6  3510.25
468.4  3438.75
468.2  3509
468  3459.75
467.8  3460.75
467.6  3467
467.4  3510.5
467.2  3478
467  3450.25
466.8  3509.5
466.6  3484
466.4  3498.5
466.2  3472.25
466  3453.5
465.8  3480
465.6  3464
465.4  3512.25
465.2  3495.25
465  3549.5
464.8  3559.5
464.6  3552.75
464.4  3563.75
464.2  3564
464  3583.75
463.8  3587
463.6  3557.75
463.4  3605
463.2  3577.5
463  3532.25
462.8  3579.25
462.6  3554
462.4  3502.25
462.2  3478.75
462  3440
461.8  3449
461.6  3393.25
461.4  3363.5
461.2  3425.5
461  3300
460.8  3373
460.6  3341
460.4  3281
460.2  3267.5
460  3271
459.8  3220.75
459.6  3205.75
459.4  3196.75
459.2  3189.75
459  3138.75
458.8  3102.25
458.6  3134
458.4  3100
458.2  3112.5
458  3118.5
457.8  3142.25
457.6  3113
457.4  3073
457.2  3045.5
457  3073.25
456.8  3094
456.6  3112.5
456.4  3120
456.2  3186.5
456  3198
455.8  3264.75
455.6  3373.5
455.4  3504.75
455.2  3597
455  3782.25
454.8  4062.25
454.6  4366
454.4  4755.5
454.2  5270
454  5910.5
453.8  6715.5
453.6  7648.5
453.4  8693.25
453.2  9928.75
453  11111
452.8  12188.75
452.6  13012.5
452.4  13634.75
452.2  13603
452  12841
451.8  11899.5
451.6  10417.75
451.4  8972
451.2  7361.75
451  6070
450.8  4968.75
450.6  4158.25
450.4  3609.75
450.2  3266
450  3014.25
449.8  2808.75
449.6  2733.25
449.4  2598.75
449.2  2579.25
449  2631.25
448.8  2613.25
448.6  2667.5
448.4  2707.25
448.2  2821.75
448  2943.5
447.8  3108.25
447.6  3370.5
447.4  3620.25
447.2  4045.25
447  4535.5
446.8  5156.25
446.6  5920.5
446.4  7035.25
446.2  8262
446  9656.25
445.8  11329.25
445.6  13191
445.4  14821
445.2  16433.25
445  17587.75
444.8  18199.5
444.6  17741.25
444.4  16672.5
444.2  15062.5
444  13146.25
443.8  10882.75
443.6  8877
443.4  7199.75
443.2  5843.75
443  4872.25
442.8  4184.5
442.6  3774.75
442.4  3402
442.2  3172.25
442  2905.75
441.8  2712.75
441.6  2591
441.4  2543
441.2  2356.75
441  2260
440.8  2205.75
440.6  2143.25
440.4  2104.5
440.2  2080.75
440  1962.75
439.8  1877.75
439.6  1807.75
439.4  1807.5
439.2  1719.75
439  1677.75
438.8  1664
438.6  1632.75
438.4  1594.25
438.2  1562.25
438  1541.25
437.8  1566.5
437.6  1535.5
437.4  1543
437.2  1574
437  1578
436.8  1628.75
436.6  1709.5
436.4  1827.25
436.2  1899.25
436  2009.5
435.8  2123.75
435.6  2262.5
435.4  2400.75
435.2  2427
435  2511.5
434.8  2539.75
434.6  2486.75
434.4  2373
434.2  2257.5
434  2213.25
433.8  2125.25
433.6  2055.5
433.4  2011
433.2  1977.25
433  1933.25
432.8  1884.5
432.6  1856
432.4  1748.5
432.2  1656.25
432  1591.75
431.8  1533.75
431.6  1451
431.4  1394.75
431.2  1346.75
431  1311
430.8  1281.5
430.6  1283.25
430.4  1239
430.2  1251.5
430  1227.75
429.8  1228.75
429.6  1225.25
429.4  1181.5
429.2  1202.5
429  1217.75
428.8  1207.25
428.6  1210
428.4  1183.5
428.2  1176.75
428  1191.5
427.8  1191
427.6  1166.75
427.4  1180.5
427.2  1179.5
427  1165.5
426.8  1203
426.6  1182.5
426.4  1175.5
426.2  1133.25
426  1183.25
425.8  1189.25
425.6  1222.25
425.4  1195.5
425.2  1191.25
425  1194.25
424.8  1226.5
424.6  1198.75
424.4  1197.5
424.2  1169
424  1189.5
423.8  1197
423.6  1212.75
423.4  1183.75
423.2  1176.25
423  1178.75
422.8  1165.25
422.6  1146.5
422.4  1173.25
422.2  1162.5
422  1180.5
421.8  1148
421.6  1090.75
421.4  1131.5
421.2  1166.5
421  1189.25
420.8  1136
420.6  1202.5
420.4  1128.5
420.2  1159.75
420  1165
419.8  1136
419.6  1133.5
419.4  1128
419.2  1123.5
419  1122.5
418.8  1121.75
418.6  1115.75
418.4  1140.25
418.2  1123
418  1092.5
417.8  1120.5
417.6  1152.75
417.4  1109.5
417.2  1164.25
417  1130.75
416.8  1103.75
416.6  1121.5
416.4  1153
416.2  1131.5
416  1131.75
415.8  1127
415.6  1114.25
415.4  1128.75
415.2  1130.5
415  1109
414.8  1115.25
414.6  1120.75
414.4  1101.75
414.2  1110
414  1122
413.8  1140.25
413.6  1115.25
413.4  1100.75
413.2  1097.25
413  1129.75
412.8  1121.25
412.6  1114.5
412.4  1104.5
412.2  1105.5
412  1104.25
411.8  1115.5
411.6  1124.75
411.4  1122.25
411.2  1102.25
411  1081.5
410.8  1113.75
410.6  1108.25
410.4  1096.25
410.2  1111.75
410  1073.5
409.8  1085.5
409.6  1101.5
409.4  1102
409.2  1072.5
409  1116.75
408.8  1084.25
408.6  1090
408.4  1085
408.2  1097.25
408  1097.25
407.8  1091.5
407.6  1082.5
407.4  1107.5
407.2  1096.25
407  1090.5
406.8  1101.75
406.6  1122.25
406.4  1098
406.2  1091
406  1107.5
405.8  1110.25
405.6  1098
405.4  1075.75
405.2  1114.5
405  1080.5
404.8  1133.75
404.6  1090
404.4  1094.25
404.2  1089.25
404  1098.5
403.8  1060.25
403.6  1085.75
403.4  1055.25
403.2  1086.5
403  1119.5
402.8  1112
402.6  1082.75
402.4  1143
402.2  1086
402  1123
401.8  1108.5
401.6  1099.25
401.4  1105.25
401.2  1126
401  1092.25
400.8  1120.5
400.6  1080.25
400.4  1128
400.2  1135.5
400  1104.75
399.8  1130.25
399.6  1099
399.4  1132.75
399.2  1139.5
399  1133
398.8  1104.25
398.6  1118.75
398.4  1115.5
398.2  1104
398  1117.5
397.8  1121.25
397.6  1094.75
397.4  1108.75
397.2  1088
397  1104.5
396.8  1098.5
396.6  1069.5
396.4  1096.25
396.2  1065.25
396  1095
395.8  1090.75
395.6  1109.5
395.4  1088
395.2  1100.75
395  1079.75
394.8  1079.5
394.6  1102
394.4  1078
394.2  1062
394  1066.25
393.8  1111.5
393.6  1057.5
393.4  1066.25
393.2  1057.25
393  1079
392.8  1089.75
392.6  1103.5
392.4  1070.75
392.2  1058
392  1084
391.8  1063.5
391.6  1074
391.4  1053.25
391.2  1056.5
391  1052
390.8  1054.75
390.6  1082.75
390.4  1063.5
390.2  1061.75
390  1067
389.8  1083.25
389.6  1100
389.4  1057.75
389.2  1064.5
389  1052.25
388.8  1087.5
388.6  1068.75
388.4  1067.25
388.2  1055.75
388  1091
387.8  1089.5
387.6  1094.75
387.4  1054
387.2  1084.5
387  1097.25
386.8  1114.5
386.6  1102.75
386.4  1109
386.2  1082.5
386  1096.25
385.8  1092.5
385.6  1105.25
385.4  1073.25
385.2  1093.5
385  1092.25
384.8  1124.25
384.6  1097.75
384.4  1104
384.2  1122.25
384  1127.75
383.8  1151.75
383.6  1149.75
383.4  1120.5
383.2  1137.25
383  1149
382.8  1146.25
382.6  1152.25
382.4  1126.5
382.2  1162
382  1178.75
381.8  1158.5
381.6  1141.75
381.4  1169
381.2  1165.25
381  1188.75
380.8  1147
380.6  1142.75
380.4  1144.75
380.2  1129.25
380  1115.25
379.8  1097.75
379.6  1124.5
379.4  1095.75
379.2  1092
379  1105.25
378.8  1138.5
378.6  1116
378.4  1112.25
378.2  1084.5
378  1106.5
377.8  1119.5
377.6  1090.5
377.4  1142.75
377.2  1153.5
377  1124.75
376.8  1119.75
376.6  1136.5
376.4  1115
376.2  1160.75
376  1150.75
375.8  1166.75
375.6  1131.5
375.4  1150.75
375.2  1136.25
375  1150.75
374.8  1171.25
374.6  1167.5
374.4  1165.25
374.2  1174.5
374  1156
373.8  1181.5
373.6  1145.75
373.4  1125
373.2  1125.5
373  1116.5
372.8  1139
372.6  1121.75
372.4  1065
372.2  1064
372  1037.75
371.8  1032.5
371.6  1022
371.4  992.75
371.2  997.75
371  1014.75
370.8  1008.25
370.6  977.5
370.4  988.75
370.2  996.25
370  991.5
369.8  976.5
369.6  988.5
369.4  997.75
369.2  991.75
369  1010.75
368.8  989.25
368.6  964.5
368.4  1028.5
368.2  996.75
368  995.25
367.8  989.75
367.6  987.75
367.4  1003.25
367.2  1005.5
367  976.25
366.8  1009.25
366.6  983.5
366.4  947
366.2  972.25
366  971.5
365.8  989.75
365.6  966
365.4  981.25
365.2  987.25
365  1000
364.8  988.75
364.6  966
364.4  962.25
364.2  989.5
364  1007.5
363.8  986.5
363.6  966.75
363.4  1003
363.2  993.75
363  950.5
362.8  995.5
362.6  973.25
362.4  1004
362.2  972.75
362  963.5
361.8  969.5
361.6  980.25
361.4  994.25
361.2  1006.5
361  957.75
360.8  973.75
360.6  976.75
360.4  1012.75
360.2  1005.25
360  1012.75
359.8  975.5
359.6  970.5
359.4  988.5
359.2  986.25
359  983.25
358.8  963.5
358.6  972.5
358.4  981.5
358.2  1000.75
358  981.75
357.8  991
357.6  997.75
357.4  987.75
357.2  998.75
357  1002.25
356.8  1004
356.6  991
356.4  1013.5
356.2  994
356  999.25
355.8  964.25
355.6  998.5
355.4  989.25
355.2  959.25
355  982.75
354.8  1002.75
354.6  996.25
354.4  977.75
354.2  1005.25
354  970.5
353.8  967.25
353.6  984.25
353.4  999.5
353.2  1018.5
353  976
352.8  995.25
352.6  998.75
352.4  979.25
352.2  1007
352  992
351.8  1005
351.6  1005.25
351.4  981.75
351.2  981.25
351  980.25
350.8  1002.75
350.6  1003.75
350.4  992.25
350.2  1011.75
350  971.75
349.8  1016.5
349.6  973.5
349.4  1043.75
349.2  990.5
349  1031
348.8  1007.75
348.6  1060
348.4  1018.25
348.2  1009.25
348  1009.75
347.8  997.75
347.6  992.25
347.4  1000.25
347.2  993.25
347  1023.5
346.8  1015.75
346.6  1007.5
346.4  990
346.2  984.5
346  991.75
345.8  977.75
345.6  984.5
345.4  1020.5
345.2  969
345  980.5
344.8  971.75
344.6  970
344.4  955.75
344.2  992.75
344  969.75
343.8  980.5
343.6  988.5
343.4  970
343.2  978.75
343  1005.25
342.8  966.25
342.6  989.25
342.4  1009.5
342.2  984.75
342  971.25
341.8  986.5
341.6  975.5
341.4  990.5
341.2  969.25
341  982.25
340.8  970.75
340.6  971.75
340.4  976.25
340.2  988.75
340  982.5
339.8  971.25
339.6  961
339.4  997.25
339.2  1003.75
339  1012.25
338.8  994
338.6  981
338.4  995.25
338.2  983.75
338  1024.25
337.8  985
337.6  1006.5
337.4  982.5
337.2  1001.5
337  979.25
336.8  982
336.6  984.75
336.4  997
336.2  1024.75
336  988
335.8  987.75
335.6  1010
335.4  997
335.2  1006.5
335  960.75
334.8  974.5
334.6  1004.25
334.4  987
334.2  1017.25
334  982.5
333.8  954
333.6  1015.75
333.4  1008.5
333.2  978.25
333  991.75
332.8  975.75
332.6  995
332.4  979.5
332.2  970.75
332  972
331.8  977.25
331.6  957.75
331.4  981.25
331.2  987.5
331  945.25
330.8  1009.5
330.6  988
330.4  974
330.2  975.75
330  989
329.8  1000.5
329.6  974
329.4  988
329.2  998.75
329  957.5
328.8  983
328.6  1007
328.4  982.25
328.2  973.75
328  955.75
327.8  978.25
327.6  963.25
327.4  1020.75
327.2  1010.25
327  974.5
326.8  1008.75
326.6  976.25
326.4  982.25
326.2  966
326  995.5
325.8  978
325.6  967
325.4  990
325.2  981.75
325  984.5
324.8  982.5
324.6  971.75
324.4  960.5
324.2  986.5
324  988.5
323.8  953.75
323.6  997.5
323.4  994.75
323.2  973.5
323  990.25
322.8  989.5
322.6  988.75
322.4  979.75
322.2  1002
322  995.25
321.8  957
321.6  966.5
321.4  995.5
321.2  1005.5
321  1012.75
320.8  1004.75
320.6  1010.75
320.4  1011.75
320.2  974.5
320  988.75
319.8  996.25
319.6  1038
319.4  985.5
319.2  993
319  991.25
318.8  1010.5
318.6  997.5
318.4  1003.25
318.2  1005.75
318  988.25
317.8  984
317.6  962.75
317.4  1006.5
317.2  993.75
317  989.25
316.8  986.5
316.6  963
316.4  998.75
316.2  978.75
316  986.5
315.8  949.5
315.6  994.25
315.4  981.75
315.2  997
315  1012.5
314.8  974.75
314.6  994.5
314.4  980.25
314.2  1006.25
314  944.5
313.8  963.75
313.6  972.25
313.4  976.75
313.2  969.5
313  981.75
312.8  982.5
312.6  1021
312.4  1070.25
312.2  1003.75
312  956
311.8  980
311.6  991.75
311.4  972.5
311.2  955.5
311  972
310.8  982.5
310.6  974.75
310.4  979.5
310.2  986
310  988.25
309.8  1001.75
309.6  980.75
309.4  980
309.2  993
309  940
308.8  975.25
308.6  974.75
308.4  961.5
308.2  984.5
308  987.25
307.8  974
307.6  985
307.4  947.75
307.2  992.75
307  945.5
306.8  961
306.6  990.5
306.4  992
306.2  949.5
306  961.25
305.8  998.75
305.6  988.75
305.4  977.5
305.2  1001.25
305  957
304.8  981
304.6  982.5
304.4  966
304.2  985
304  948.5
303.8  978
303.6  990.75
303.4  995
303.2  962.75
303  959.5
302.8  967.75
302.6  983.5
302.4  1015.25
302.2  978
302  980
301.8  999.5
301.6  983.75
301.4  998
301.2  951.25
301  965.75
300.8  969.75
300.6  975.5
300.4  947.5
300.2  1007.75
300  990
299.8  948
299.6  984.75
299.4  956.5
299.2  972.75
299  949.75
298.8  978.75
298.6  978.5
298.4  995.5
298.2  989.5
298  987
297.8  962.25
297.6  989.75
297.4  979.25
297.2  1005.5
297  973.75
296.8  977
296.6  968.25
296.4  968.5
296.2  988.75
296  978
295.8  980.75
295.6  964.25
295.4  974.75
295.2  1003.5
295  1005.5
294.8  984.25
294.6  954.5
294.4  971.5
294.2  992.5
294  982.5
293.8  1013.25
293.6  975
293.4  1005
293.2  955.5
293  1019
292.8  988.5
292.6  988.25
292.4  964.25
292.2  966
292  981.25
291.8  990
291.6  986.25
291.4  993.5
291.2  988.75
291  960.75
290.8  949.75
290.6  961.75
290.4  1008.25
290.2  993
290  989
289.8  987
289.6  991.5
289.4  958.25
289.2  981.25
289  975.25
288.8  986.75
288.6  990
288.4  1008.25
288.2  978.25
288  1006
287.8  976
287.6  970.75
287.4  982.25
287.2  982.25
287  1012
286.8  1006
286.6  998.25
286.4  969.75
286.2  1003.5
286  993.5
285.8  974.25
285.6  976.25
285.4  975.5
285.2  1013
285  1013.25
284.8  1006.75
284.6  1032.75
284.4  1018.25
284.2  988.75
284  1009.25
283.8  1009
283.6  972
283.4  978.5
283.2  995.75
283  936.75
282.8  983
282.6  981.75
282.4  996.75
282.2  972.75
282  984.75
281.8  962
281.6  947.75
281.4  985.25
281.2  971.75
281  973.5
280.8  960.75
280.6  964.5
280.4  982.5
280.2  976.75
280  978
279.8  1004.75
279.6  982.25
279.4  966.75
279.2  969.25
279  986.25
278.8  970.75
278.6  966.75
278.4  946.75
278.2  980
278  995
277.8  968
277.6  977.75
277.4  975.75
277.2  963.75
277  973
276.8  979.5
276.6  981.25
276.4  957
276.2  996.25
276  981.5
275.8  967.75
275.6  998
275.4  951.5
275.2  961.5
275  982.5
274.8  971
274.6  940
274.4  946
274.2  973
274  941.75
273.8  978.25
273.6  1002.75
273.4  959.75
273.2  995.75
273  984.5
272.8  972
272.6  969
272.4  962.75
272.2  954
272  952
271.8  967
271.6  965.5
271.4  953
271.2  963.5
271  970
270.8  954
270.6  985.25
270.4  953.5
270.2  955.25
270  964.5
269.8  931.75
269.6  970.25
269.4  990.25
269.2  988.75
269  950
268.8  964.75
268.6  959
268.4  980
268.2  993
268  969.25
267.8  936.75
267.6  987
267.4  961.75
267.2  972
267  972.5
266.8  955
266.6  976
266.4  967.5
266.2  975.25
266  960.25
265.8  978.25
265.6  940.25
265.4  967.25
265.2  988.75
265  967
264.8  957.5
264.6  972
264.4  989.25
264.2  948.5
264  952.25
263.8  992
263.6  976.75
263.4  980
263.2  965
263  964
262.8  956
262.6  979.25
262.4  972
262.2  965
262  991
261.8  944
261.6  987.5
261.4  987.5
261.2  957.25
261  967.75
260.8  942.25
260.6  981.75
260.4  1006.75
260.2  992.75
260  992.25
259.8  941
259.6  961
259.4  965.5
259.2  951.75
259  969.75
258.8  955.25
258.6  949
258.4  971
258.2  934.5
258  966.5
257.8  959.25
257.6  960
257.4  973.75
257.2  967.75
257  937
256.8  970.25
256.6  970.5
256.4  974.5
256.2  973.5
256  978
255.8  991.5
255.6  986.5
255.4  969.25
255.2  968.5
255  961.75
254.8  1008.25
254.6  964.25
254.4  946.75
254.2  1019.5
254  953
253.8  985.75
253.6  1010
253.4  1007
253.2  1007
253  981.75
252.8  985.5
252.6  982.75
252.4  968.25
252.2  977
252  988.25
251.8  1008.25
251.6  984
251.4  998
251.2  986.5
251  995.25
250.8  991.75
250.6  990.25
250.4  978.25
250.2  975.25
250  983
249.8  998
249.6  980.25
249.4  983.25
249.2  956
249  978
248.8  977.5
248.6  961.25
248.4  956.75
248.2  968.5
248  975.5
247.8  961.75
247.6  976
247.4  1001.25
247.2  975.25
247  963.5
246.8  976.75
246.6  967
246.4  1016.5
246.2  985.5
246  962.25
245.8  985.5
245.6  988.25
245.4  1000.5
245.2  992.75
245  1017.75
244.8  992.75
244.6  1008.25
244.4  1008.25
244.2  1009.25
244  988.75
243.8  1053.5
243.6  1015.5
243.4  1019.25
243.2  1031
243  1023.25
242.8  1033.25
242.6  1019.5
242.4  1005
242.2  1032.25
242  1027.5
241.8  1035.5
241.6  1021.75
241.4  1026.75
241.2  1008.75
241  1004.25
240.8  1010.25
240.6  1008.75
240.4  992.5
240.2  978.75
240  1013.25
239.8  993.75
239.6  969.5
239.4  995
239.2  978
239  991.75
238.8  972
238.6  963.5
238.4  972.5
238.2  977.25
238  976.75
237.8  956.25
237.6  966.5
237.4  976.5
237.2  984.25
237  998.25
236.8  961.25
236.6  1000.25
236.4  984.75
236.2  970.5
236  961.25
235.8  975.5
235.6  957.25
235.4  993
235.2  971
235  987
234.8  1009.5
234.6  977.25
234.4  976.75
234.2  970
234  956.75
233.8  993
233.6  997.5
233.4  982
233.2  979.25
233  1017.25
232.8  963.75
232.6  1007
232.4  964.75
232.2  991.5
232  986
231.8  1000.75
231.6  997.75
231.4  995
231.2  1023.25
231  1016.75
230.8  1000.75
230.6  1002
230.4  977.75
230.2  977
230  976.25
229.8  967.5
229.6  961.5
229.4  982
229.2  1016.5
229  996
228.8  959.5
228.6  991
228.4  980.5
228.2  969.75
228  977
227.8  964
227.6  976.25
227.4  988.5
227.2  924.5
227  971.5
226.8  968.25
226.6  962.25
226.4  994.75
226.2  964.75
226  947.5
225.8  947
225.6  955.25
225.4  984.75
225.2  952.5
225  1003
224.8  966.5
224.6  958.25
224.4  957.25
224.2  956
224  986
223.8  943.5
223.6  952.75
223.4  978.5
223.2  968.75
223  950
222.8  973.25
222.6  965.25
222.4  975.25
222.2  1003.5
222  960.25
221.8  968.5
221.6  961.75
221.4  970.25
221.2  948.75
221  981.25
220.8  980.75
220.6  956.25
220.4  975.5
220.2  964
220  969
219.8  959.5
219.6  955
219.4  995
219.2  976.75
219  979.75
218.8  968.25
218.6  921.25
218.4  944
218.2  976.5
218  957.25
217.8  968
217.6  937.75
217.4  923.5
217.2  955
217  980.75
216.8  939
216.6  963.25
216.4  980.5
216.2  948.25
216  967.25
215.8  951.5
215.6  960
215.4  959.5
215.2  930.75
215  967
214.8  966.75
214.6  935.5
214.4  946.75
214.2  963.25
214  945
213.8  965.75
213.6  957.75
213.4  976.75
213.2  961.25
213  940
212.8  964.5
212.6  967
212.4  956.75
212.2  950.75
212  963.75
211.8  967.75
211.6  959.25
211.4  958.75
211.2  951.5
211  930.25
210.8  969.75
210.6  928.75
210.4  963.5
210.2  999.5
210  953.75
209.8  959.25
209.6  949.75
209.4  954
209.2  982.5
209  969
208.8  959.75
208.6  947.25
208.4  954.25
208.2  963.5
208  951.25
207.8  947
207.6  965.25
207.4  1049.25
207.2  965.25
207  963.25
206.8  954.5
206.6  986
206.4  960.25
206.2  965.5
206  952.5
205.8  960.5
205.6  972.25
205.4  961.25
205.2  968
205  978.25
204.8  940.25
204.6  973.25
204.4  973
204.2  958.75
204  973.25
203.8  975.25
203.6  975.5
203.4  959.75
203.2  950
203  971
202.8  960.25
202.6  966.75
202.4  973
202.2  966.5
202  959.5
201.8  964
201.6  979.25
201.4  981.75
201.2  976.5
201  993.25
200.8  957
200.6  967
200.4  961.75
200.2  978.75
200  984.5
199.8  972.25
199.6  943.5
199.4  974.25
199.2  966.75
199  976.5
198.8  978.5
198.6  991.25
198.4  972.75
198.2  979.5
198  977.25
197.8  1010.25
197.6  977.75
197.4  989
197.2  950
197  978.5
196.8  974.25
196.6  975.75
196.4  986.25
196.2  969.5
196  982.5
195.8  949.75
195.6  963
195.4  997
195.2  1002.75
195  995.25
194.8  969.75
194.6  981.25
194.4  955.5
194.2  977.5
194  973.5
193.8  986.25
193.6  983.5
193.4  986
193.2  980
193  982.25
192.8  965.75
192.6  991.25
192.4  951.5
192.2  981.75
192  993.5
191.8  975.5
191.6  1004.5
191.4  960
191.2  987.75
191  987.75
190.8  973.25
190.6  994.75
190.4  976.25
190.2  989
190  977.5
189.8  997.75
189.6  972.25
189.4  993.5
189.2  963
189  981.25
188.8  970.75
188.6  964.5
188.4  986.5
188.2  963
188  961.75
187.8  977.5
187.6  1004
187.4  981.75
187.2  998
187  1000.25
186.8  961.5
186.6  978.25
186.4  972.5
186.2  1006
186  999.25
185.8  973
185.6  977.25
185.4  1011.75
185.2  999.25
185  1000.5
184.8  970.5
184.6  974.5
184.4  996.5
184.2  1000.75
184  965.25
183.8  951.25
183.6  976
183.4  996
183.2  1013.5
183  971.25
182.8  988.25
182.6  978.5
182.4  986
182.2  982.5
182  985
181.8  981.25
181.6  997.25
181.4  1001.5
181.2  975.5
181  985.5
180.8  983.5
180.6  977
180.4  991
180.2  992
180  965
179.8  969.75
179.6  966.75
179.4  997.75
179.2  981.5
179  988.75
178.8  958.5
178.6  961
178.4  987.25
178.2  957.25
178  989.75
177.8  995.75
177.6  1003
177.4  989.75
177.2  981.25
177  996.75
176.8  966.5
176.6  964.25
176.4  996.25
176.2  953
176  984.75
175.8  957.75
175.6  992.75
175.4  969.25
175.2  1001.25
175  979.5
174.8  982.25
174.6  980.5
174.4  965.25
174.2  963
174  988
173.8  963
173.6  1007
173.4  959.25
173.2  976.75
173  985.5
172.8  1011.75
172.6  983.5
172.4  979.5
172.2  973.25
172  972.5
171.8  971.75
171.6  972
171.4  1001.25
171.2  981
171  974.25
170.8  979.5
170.6  988.25
170.4  967.75
170.2  964.5
170  961.5
169.8  969.75
169.6  999.5
169.4  977.5
169.2  1004.5
169  955.5
168.8  1021.25
168.6  992.25
168.4  967
168.2  964.5
168  989
167.8  955.75
167.6  984.25
167.4  983
167.2  962.5
167  977.25
166.8  974.75
166.6  973.25
166.4  964.5
166.2  991.25
166  992.75
165.8  1003.25
165.6  998.25
165.4  1030.5
165.2  988
165  972.5
164.8  953.25
164.6  987.75
164.4  993.5
164.2  990
164  967
163.8  1006.25
163.6  1015.5
163.4  1006.25
163.2  1017
163  1004.25
162.8  975
162.6  965.75
162.4  962
162.2  959
162  992.5
161.8  988.75
161.6  981.25
161.4  992.5
161.2  1005.5
161  996.25
160.8  973
160.6  977.75
160.4  971.5
160.2  981.25
160  974
159.8  974
159.6  1016
159.4  973.5
159.2  974.5
159  1022.5
158.8  986.5
158.6  988.5
158.4  978.75
158.2  985.75
158  983
157.8  980.5
157.6  1008.5
157.4  986.25
157.2  1021.25
157  1027
156.8  1013
156.6  1018
156.4  1000
156.2  1042
156  1025
155.8  1027
155.6  1024.25
155.4  1028.25
155.2  1000.25
155  1007.25
154.8  999.25
154.6  975
154.4  992.25
154.2  975.75
154  988
153.8  999
153.6  997.25
153.4  962.25
153.2  959.5
153  1001.5
152.8  997.75
152.6  984.5
152.4  1000.25
152.2  983.5
152  1007.75
151.8  1001
151.6  986.25
151.4  988.5
151.2  1039
151  968
150.8  1001
150.6  1022.75
150.4  978.75
150.2  987.5
150  997.5
149.8  1000.25
149.6  977
149.4  1007.25
149.2  1015.25
149  975
148.8  1033.75
148.6  968.5
148.4  984.5
148.2  973.25
148  976.75
147.8  978.25
147.6  968.5
147.4  978
147.2  970.75
147  964.75
146.8  1003.25
146.6  1037
146.4  1008
146.2  996.5
146  994
145.8  988
145.6  963.25
145.4  956.25
145.2  977.5
145  977.25
144.8  1007
144.6  988.5
144.4  965
144.2  991.75
144  998.75
143.8  976
143.6  980.25
143.4  1010.75
143.2  982.5
143  1024
142.8  991.75
142.6  1017.5
142.4  1022
142.2  1037.25
142  978.75
141.8  1035.25
141.6  991
141.4  1019
141.2  1024
141  1026.5
140.8  996.5
140.6  1029
140.4  979
140.2  990.25
140  1023.75
139.8  995
139.6  1004.5
139.4  1004.25
139.2  1043.5
139  1025.5
138.8  1025
138.6  1027.75
138.4  999.75
138.2  1017
138  1002.75
137.8  1013.25
137.6  1001.75
137.4  1020.25
137.2  1002
137  1025.25
136.8  1016.75
136.6  980.5
136.4  1008.75
136.2  1022
136  1006.75
135.8  979.25
135.6  1024.5
135.4  992
135.2  1010.25
135  1040.75
134.8  1013.75
134.6  1009.75
134.4  1000.5
134.2  982.75
134  996.5
133.8  985
133.6  978
133.4  987
133.2  962.25
133  1027
132.8  988.5
132.6  989.25
132.4  976
132.2  1047.75
132  974
131.8  960.5
131.6  1027
131.4  1002.5
131.2  996
131  996.5
130.8  1023
130.6  1016.75
130.4  1033.75
130.2  1015.25
130  1011
129.8  1014.25
129.6  1006.75
129.4  1033
129.2  1021.25
129  1024.75
128.8  1004.75
128.6  1016
128.4  1053.25
128.2  1029.5
128  1043
127.8  1038
127.6  1052.25
127.4  1034.25
127.2  1051.5
127  1071
126.8  1081.25
126.6  1097
126.4  1089.25
126.2  1083.25
126  1128.25
125.8  1109.75
125.6  1119
125.4  1129.75
125.2  1128.5
125  1191.5
124.8  1185
124.6  1173.75
124.4  1158.5
124.2  1194.5
124  1200
123.8  1210.75
123.6  1195.25
123.4  1205.75
123.2  1196.5
123  1192.25
122.8  1168
122.6  1143.5
122.4  1158
122.2  1135
122  1128
121.8  1104.5
121.6  1083.75
121.4  1084.75
121.2  1081.75
121  1073.5
120.8  1061
120.6  1033.75
120.4  1052
120.2  1021.25
120  1026
119.8  1003.25
119.6  992.25
119.4  1023.25
119.2  984
119  994
118.8  1026.75
118.6  994.25
118.4  986.75
118.2  989
118  975.25
117.8  985.25
117.6  977.5
117.4  987.5
117.2  987.75
117  988.75
116.8  995.25
116.6  1002
116.4  987.75
116.2  965.25
116  973.25
115.8  988.5
115.6  1000.25
115.4  981.25
115.2  949
115  1012.75
114.8  978.5
114.6  1007.25
114.4  984.75
114.2  947.25
114  998.5
113.8  1010.75
113.6  991.25
113.4  982
113.2  1020.5
113  1000.25
112.8  971.75
112.6  1022.75
112.4  972.75
112.2  975.75
112  942.5
111.8  995.5
111.6  991.75
111.4  982
111.2  981
111  973
110.8  1011.25
110.6  981.75
110.4  982
110.2  958.25
110  947
109.8  959.5
109.6  993
109.4  944.25
109.2  962.5
109  991.5
108.8  975.5
108.6  1004.25
108.4  1001.5
108.2  989
108  991.5
107.8  976.25
107.6  971.75
107.4  1006.5
107.2  990
107  984.5
106.8  992
106.6  998
106.4  980.75
106.2  978.25
106  1020.75
105.8  1000
105.6  991.25
105.4  990
105.2  981.5
105  1001.5
104.8  976
104.6  994
104.4  993.5
104.2  1027
104  997.5
103.8  978.75
103.6  1012.5
103.4  1011
103.2  1010
103  1001.75
102.8  1008.25
102.6  990.75
102.4  969.5
102.2  998.75
102  970
101.8  993.75
101.6  987.5
101.4  1000.5
101.2  1010
101  1018
100.8  1039.5
100.6  1019.75
100.4  982.25
100.2  1016.25
100  1037
99.8  991.25
99.6  1009
99.4  1000.5
99.2  1017
99  1012
98.8  1027
98.6  1021.75
98.4  998
98.2  1024.5
98  1038
97.8  1017.75
97.6  1028
97.4  1017.25
97.2  1048
97  1022.5
96.8  1015.75
96.6  1045
96.4  1022.25
96.2  1045
96  1011.5
95.8  1038.75
95.6  1017.75
95.4  1060.75
95.2  1026.25
95  1046
94.8  1028.5
94.6  1037
94.4  1069.5
94.2  1049
94  997
93.8  1061.75
93.6  1033.75
93.4  1051.25
93.2  1058
93  1061.25
92.8  1064
92.6  1058.25
92.4  1037.75
92.2  1052.75
92  1056.25
91.8  1078.75
91.6  1037.75
91.4  1096.5
91.2  1068.25
91  1075.5
90.8  1082.5
90.6  1068.75
90.4  1071.5
90.2  1073.5
90  1055
89.8  1101.25
89.6  1088.75
89.4  1100.5
89.2  1116.75
89  1084
88.8  1113
88.6  1110.5
88.4  1119.75
88.2  1110.75
88  1102
87.8  1133.75
87.6  1115.5
87.4  1120
87.2  1113.25
87  1122.5
86.8  1146
86.6  1126.25
86.4  1136.75
86.2  1146.5
86  1168.5
85.8  1132.75
85.6  1136.75
85.4  1156.75
85.2  1162.5
85  1136.25
84.8  1158.75
84.6  1165.5
84.4  1175
84.2  1136.75
84  1128.75
83.8  1150.25
83.6  1152.25
83.4  1158.25
83.2  1171
83  1169.5
82.8  1150.5
82.6  1187.75
82.4  1170.75
82.2  1187.75
82  1170.5
81.8  1145.5
81.6  1197.25
81.4  1186.5
81.2  1204.5
81  1174
80.8  1176.25
80.6  1184.25
80.4  1218.75
80.2  1192.25
80  1208.25
79.8  1206.75
79.6  1232
79.4  1177.75
79.2  1204.25
79  1219.75
78.8  1195.75
78.6  1173
78.4  1200.75
78.2  1188
78  1163
77.8  1168
77.6  1146.75
77.4  1178.5
77.2  1123.75
77  1150.75
76.8  1143.5
76.6  1111.25
76.4  1067.5
76.2  1091.25
76  1107.25
75.8  1099.25
75.6  1103.5
75.4  1074.5
75.2  1073.75
75  1006.75
74.8  1029.25
74.6  1015.5
74.4  1036.25
74.2  1001.75
74  986.25
73.8  1014.25
73.6  980
73.4  997
73.2  992
73  988.75
72.8  964.5
72.6  983.25
72.4  962.5
72.2  959
72  958.25
71.8  932.5
71.6  930.5
71.4  947.75
71.2  910.25
71  917.25
70.8  915.5
70.6  904.25
70.4  885.75
70.2  885.75
70  868.75
69.8  914.5
69.6  950.25
69.4  850.5
69.2  846.75
69  856.25
68.8  887.25
68.6  879
68.4  831.5
68.2  834.5
68  804.25
67.8  829
67.6  835.75
67.4  839
67.2  825.25
67  813.5
66.8  817.25
66.6  799.25
66.4  814
66.2  785.75
66  808
65.8  785.5
65.6  802.75
65.4  770.5
65.2  780.25
65  760.75
64.8  804.25
64.6  790.5
64.4  751.25
64.2  748.75
64  788.75
63.8  774.5
63.6  755.5
63.4  744.75
63.2  744
63  782.5
62.8  775
62.6  745.5
62.4  734.5
62.2  744.75
62  763.25
61.8  710.25
61.6  749.25
61.4  738.75
61.2  742
61  730.25
60.8  755.25
60.6  746
60.4  730.75
60.2  767
60  739.5
59.8  729.25
59.6  749
59.4  765.25
59.2  742
59  735.75
58.8  717.75
58.6  715.5
58.4  751
58.2  734.75
58  723.5
57.8  731.25
57.6  750
57.4  716.75
57.2  741.5
57  738
56.8  732
56.6  732.75
56.4  723.25
56.2  736.5
56  712.75
55.8  734.75
55.6  719.25
55.4  734.25
55.2  708.25
55  727.5
54.8  725
54.6  739.75
54.4  723.75
54.2  719.25
54  734.25
53.8  732.75
53.6  734.5
53.4  731.75
53.2  721.25
53  733.75
52.8  735.25
52.6  744.5
52.4  745.25
52.2  726.25
52  720
51.8  736.5
51.6  726.75
51.4  713.25
51.2  740.25
51  709.5
50.8  709
50.6  700.5
50.4  726
50.2  722
50  715.75
49.8  733.25
49.6  718.5
49.4  715.5
49.2  711
49  745.75
48.8  708
48.6  740.75
48.4  706.5
48.2  736
48  731.25
47.8  718
47.6  747
47.4  731.5
47.2  722
47  730.5
46.8  733
46.6  759.25
46.4  753.5
46.2  753
46  733.75
45.8  760
45.6  750
45.4  732.75
45.2  771.75
45  744.25
44.8  734.5
44.6  726.25
44.4  747.5
44.2  760.5
44  736.25
43.8  740.5
43.6  762.25
43.4  735.5
43.2  747.25
43  732.5
42.8  720.5
42.6  735.75
42.4  736.5
42.2  762.25
42  756.5
41.8  748
41.6  746.5
41.4  719.25
41.2  739
41  737.75
40.8  737.25
40.6  722.75
40.4  744.5
40.2  728.75
40  734.25
39.8  746.25
39.6  757
39.4  749.25
39.2  761.5
39  755.75
38.8  774.5
38.6  778.5
38.4  746.25
38.2  768
38  766
37.8  747.25
37.6  744
37.4  762.75
37.2  759.25
37  769.75
36.8  763.5
36.6  750.25
36.4  777.75
36.2  768.75
36  778.5
35.8  763
35.6  789.75
35.4  770.5
35.2  764.25
35  767.75
34.8  758.5
34.6  747.75
34.4  753
34.2  723
34  722.5
33.8  766.75
33.6  748.5
33.4  734.5
33.2  723.25
33  727.5
32.8  714.25
32.6  729.75
32.4  737
32.2  730.75
32  723.75
31.8  751.75
31.6  731.25
31.4  706.5
31.2  716.25
31  735
30.8  697.25
30.6  723.75
30.4  715.25
30.2  729.25
30  743.25
29.8  772.25
29.6  741.25
29.4  768.5
29.2  760.5
29  765.25
28.8  760.5
28.6  787.75
28.4  808.5
28.2  820.75
28  826.75
27.8  847.5
27.6  873.75
27.4  884.5
27.2  894.5
27  897.25
26.8  919
26.6  903.5
26.4  875.25
26.2  874.75
26  833.5
25.8  829.75
25.6  833.25
25.4  783.5
25.2  784.5
25  782.5
24.8  748.25
24.6  757.5
24.4  751.25
24.2  750.5
24  741.75
23.8  730.5
23.6  742.25
23.4  766.25
23.2  773.5
23  743.5
22.8  749.25
22.6  790
22.4  837.5
22.2  813.5
22  838.25
21.8  849.5
21.6  857.25
21.4  869.75
21.2  922.75
21  962.5
20.8  1017.25
20.6  1089
20.4  1178
20.2  1312.5
20  1496.25
19.8  1632.75
19.6  1886.75
19.4  2108
19.2  2330.5
19  2521.25
18.8  2714.25
18.6  2854.5
18.4  2918.5
18.2  2914
18  2767.75
17.8  2631.25
17.6  2432.75
17.4  2162
17.2  1908.5
17  1622.75
16.8  1425
16.6  1225.25
16.4  1061.75
16.2  913.5
16  820.5
15.8  750.25
15.6  709.75
15.4  661.5
15.2  621.5
15  590.75
14.8  577.5
14.6  573
14.4  605.75
14.2  537.5
14  549
13.8  544.5
13.6  556.25
13.4  602.5
13.2  564.5
13  542.5
12.8  549
12.6  532
12.4  537
12.2  538.75
12  550.5
11.8  536.25
11.6  556
11.4  544.75
11.2  532.25
11  558.25
10.8  541
10.6  554.75
10.4  567
10.2  601.25
10  623.5
9.8  633.25
9.6  652.5
9.4  657.25
9.2  682.25
9  714
8.8  707.5
8.6  725
8.4  742
8.2  755.5
8  726
7.8  751.5
7.6  744.25
7.4  699.5
7.2  703.25
7  703.5
6.8  686.75
6.6  684
6.4  652
6.2  642.5
6  680.5
5.8  639
5.6  631.25
5.4  616
5.2  610.75
5  628
4.8  584.25
4.6  616
4.4  578.5
4.2  548.5
4  544.75
3.8  538.25
3.6  517.5
3.4  501
3.2  505
3  490.25
2.8  474.25
2.6  472
2.4  468.75
2.2  467.75
2  450.5
1.8  452.25
1.6  460
1.4  460.5
1.2  449.5
1  448.75
0.8  443.75
0.6  477.25
0.4  463
0.2  453.5
-2.2737368e-013  446.75
-0.2  448.25
-0.4  441.25
-0.6  477.25
-0.8  454
-1  453.75
-1.2  466.5
-1.4  445.5
-1.6  457.25
-1.8  447
-2  455
-2.2  457.25
-2.4  450.75
-2.6  465.25
-2.8  474
-3  460.5
-3.2  459
-3.4  442.5
-3.6  458.75
-3.8  457.75
-4  466.5
